# 181 angles,  1 tensor ranks for 0=projectile
@subtitle   "p+O20 1st ex with BG ;"                                                        
@legend ON
@legend x1 0.2
@legend y1 0.8
@g0 type LOGY
@yaxis ticklabel format power
@xaxis label "Scattering angle (degrees)"
@yaxis label "Cross section (mb/sr)"
@legend string   0 "Partition=  1 Excit=  1 near/far= 1"
#legend string   0 "Lab energy =   35.0000"
@s0 linestyle   1
#  Theta       sigma       iT11        T20         T21         T22         Kyy for projectile
  0.1000E-01  0.1288E+16
   1.000      0.1250E+08
   2.000      0.7233E+06
   3.000      0.1288E+06
   4.000      0.3680E+05
   5.000      0.1417E+05
   6.000       7004.    
   7.000       4329.    
   8.000       3193.    
   9.000       2644.    
   10.00       2332.    
   11.00       2119.    
   12.00       1948.    
   13.00       1795.    
   14.00       1648.    
   15.00       1505.    
   16.00       1365.    
   17.00       1229.    
   18.00       1097.    
   19.00       971.2    
   20.00       852.1    
   21.00       740.9    
   22.00       638.1    
   23.00       544.3    
   24.00       459.6    
   25.00       384.0    
   26.00       317.4    
   27.00       259.4    
   28.00       209.6    
   29.00       167.4    
   30.00       132.3    
   31.00       103.6    
   32.00       80.59    
   33.00       62.61    
   34.00       48.98    
   35.00       39.04    
   36.00       32.19    
   37.00       27.84    
   38.00       25.48    
   39.00       24.65    
   40.00       24.92    
   41.00       25.95    
   42.00       27.44    
   43.00       29.13    
   44.00       30.84    
   45.00       32.41    
   46.00       33.72    
   47.00       34.70    
   48.00       35.30    
   49.00       35.51    
   50.00       35.31    
   51.00       34.74    
   52.00       33.83    
   53.00       32.60    
   54.00       31.11    
   55.00       29.41    
   56.00       27.55    
   57.00       25.58    
   58.00       23.54    
   59.00       21.47    
   60.00       19.42    
   61.00       17.42    
   62.00       15.50    
   63.00       13.67    
   64.00       11.97    
   65.00       10.39    
   66.00       8.953    
   67.00       7.657    
   68.00       6.504    
   69.00       5.492    
   70.00       4.614    
   71.00       3.865    
   72.00       3.234    
   73.00       2.713    
   74.00       2.290    
   75.00       1.954    
   76.00       1.694    
   77.00       1.500    
   78.00       1.361    
   79.00       1.268    
   80.00       1.210    
   81.00       1.181    
   82.00       1.172    
   83.00       1.178    
   84.00       1.192    
   85.00       1.211    
   86.00       1.230    
   87.00       1.246    
   88.00       1.258    
   89.00       1.263    
   90.00       1.260    
   91.00       1.249    
   92.00       1.230    
   93.00       1.203    
   94.00       1.168    
   95.00       1.127    
   96.00       1.079    
   97.00       1.026    
   98.00      0.9687    
   99.00      0.9085    
   100.0      0.8462    
   101.0      0.7828    
   102.0      0.7192    
   103.0      0.6562    
   104.0      0.5946    
   105.0      0.5350    
   106.0      0.4781    
   107.0      0.4241    
   108.0      0.3736    
   109.0      0.3267    
   110.0      0.2836    
   111.0      0.2444    
   112.0      0.2092    
   113.0      0.1779    
   114.0      0.1504    
   115.0      0.1266    
   116.0      0.1062    
   117.0      0.8913E-01
   118.0      0.7505E-01
   119.0      0.6373E-01
   120.0      0.5492E-01
   121.0      0.4833E-01
   122.0      0.4370E-01
   123.0      0.4078E-01
   124.0      0.3929E-01
   125.0      0.3900E-01
   126.0      0.3968E-01
   127.0      0.4111E-01
   128.0      0.4310E-01
   129.0      0.4546E-01
   130.0      0.4804E-01
   131.0      0.5069E-01
   132.0      0.5330E-01
   133.0      0.5575E-01
   134.0      0.5797E-01
   135.0      0.5987E-01
   136.0      0.6142E-01
   137.0      0.6256E-01
   138.0      0.6328E-01
   139.0      0.6357E-01
   140.0      0.6341E-01
   141.0      0.6284E-01
   142.0      0.6185E-01
   143.0      0.6048E-01
   144.0      0.5876E-01
   145.0      0.5672E-01
   146.0      0.5442E-01
   147.0      0.5188E-01
   148.0      0.4917E-01
   149.0      0.4631E-01
   150.0      0.4337E-01
   151.0      0.4038E-01
   152.0      0.3738E-01
   153.0      0.3443E-01
   154.0      0.3154E-01
   155.0      0.2877E-01
   156.0      0.2613E-01
   157.0      0.2365E-01
   158.0      0.2135E-01
   159.0      0.1925E-01
   160.0      0.1736E-01
   161.0      0.1569E-01
   162.0      0.1423E-01
   163.0      0.1299E-01
   164.0      0.1195E-01
   165.0      0.1111E-01
   166.0      0.1046E-01
   167.0      0.9976E-02
   168.0      0.9645E-02
   169.0      0.9445E-02
   170.0      0.9356E-02
   171.0      0.9357E-02
   172.0      0.9428E-02
   173.0      0.9546E-02
   174.0      0.9693E-02
   175.0      0.9850E-02
   176.0      0.1000E-01
   177.0      0.1014E-01
   178.0      0.1024E-01
   179.0      0.1030E-01
   180.0      0.1033E-01
 END
@legend string   1 "Partition=  1 Excit=  2 near/far= 1"
#legend string   0 "Lab energy =   35.0000"
@s1 linestyle   2
#  Theta       sigma       iT11        T20         T21         T22         Kyy for projectile
   0.000       1.103    
   1.000       1.113    
   2.000       1.143    
   3.000       1.192    
   4.000       1.258    
   5.000       1.339    
   6.000       1.433    
   7.000       1.537    
   8.000       1.648    
   9.000       1.765    
   10.00       1.887    
   11.00       2.012    
   12.00       2.139    
   13.00       2.267    
   14.00       2.394    
   15.00       2.520    
   16.00       2.644    
   17.00       2.766    
   18.00       2.886    
   19.00       3.005    
   20.00       3.122    
   21.00       3.239    
   22.00       3.353    
   23.00       3.467    
   24.00       3.578    
   25.00       3.687    
   26.00       3.793    
   27.00       3.894    
   28.00       3.990    
   29.00       4.079    
   30.00       4.158    
   31.00       4.227    
   32.00       4.283    
   33.00       4.325    
   34.00       4.351    
   35.00       4.359    
   36.00       4.349    
   37.00       4.319    
   38.00       4.270    
   39.00       4.201    
   40.00       4.111    
   41.00       4.003    
   42.00       3.877    
   43.00       3.735    
   44.00       3.577    
   45.00       3.407    
   46.00       3.227    
   47.00       3.038    
   48.00       2.844    
   49.00       2.647    
   50.00       2.449    
   51.00       2.254    
   52.00       2.062    
   53.00       1.877    
   54.00       1.700    
   55.00       1.533    
   56.00       1.377    
   57.00       1.233    
   58.00       1.103    
   59.00      0.9858    
   60.00      0.8824    
   61.00      0.7927    
   62.00      0.7164    
   63.00      0.6528    
   64.00      0.6014    
   65.00      0.5612    
   66.00      0.5311    
   67.00      0.5102    
   68.00      0.4972    
   69.00      0.4910    
   70.00      0.4903    
   71.00      0.4939    
   72.00      0.5009    
   73.00      0.5100    
   74.00      0.5202    
   75.00      0.5308    
   76.00      0.5409    
   77.00      0.5498    
   78.00      0.5570    
   79.00      0.5620    
   80.00      0.5645    
   81.00      0.5642    
   82.00      0.5611    
   83.00      0.5549    
   84.00      0.5459    
   85.00      0.5341    
   86.00      0.5197    
   87.00      0.5028    
   88.00      0.4837    
   89.00      0.4628    
   90.00      0.4404    
   91.00      0.4166    
   92.00      0.3920    
   93.00      0.3668    
   94.00      0.3412    
   95.00      0.3156    
   96.00      0.2903    
   97.00      0.2656    
   98.00      0.2415    
   99.00      0.2184    
   100.0      0.1963    
   101.0      0.1754    
   102.0      0.1559    
   103.0      0.1378    
   104.0      0.1211    
   105.0      0.1059    
   106.0      0.9212E-01
   107.0      0.7982E-01
   108.0      0.6895E-01
   109.0      0.5944E-01
   110.0      0.5123E-01
   111.0      0.4425E-01
   112.0      0.3842E-01
   113.0      0.3364E-01
   114.0      0.2982E-01
   115.0      0.2688E-01
   116.0      0.2470E-01
   117.0      0.2320E-01
   118.0      0.2229E-01
   119.0      0.2187E-01
   120.0      0.2187E-01
   121.0      0.2220E-01
   122.0      0.2279E-01
   123.0      0.2358E-01
   124.0      0.2449E-01
   125.0      0.2548E-01
   126.0      0.2650E-01
   127.0      0.2750E-01
   128.0      0.2846E-01
   129.0      0.2934E-01
   130.0      0.3011E-01
   131.0      0.3075E-01
   132.0      0.3126E-01
   133.0      0.3161E-01
   134.0      0.3181E-01
   135.0      0.3186E-01
   136.0      0.3175E-01
   137.0      0.3148E-01
   138.0      0.3107E-01
   139.0      0.3051E-01
   140.0      0.2983E-01
   141.0      0.2902E-01
   142.0      0.2811E-01
   143.0      0.2711E-01
   144.0      0.2602E-01
   145.0      0.2486E-01
   146.0      0.2365E-01
   147.0      0.2239E-01
   148.0      0.2111E-01
   149.0      0.1981E-01
   150.0      0.1850E-01
   151.0      0.1720E-01
   152.0      0.1592E-01
   153.0      0.1466E-01
   154.0      0.1344E-01
   155.0      0.1226E-01
   156.0      0.1113E-01
   157.0      0.1005E-01
   158.0      0.9030E-02
   159.0      0.8070E-02
   160.0      0.7175E-02
   161.0      0.6344E-02
   162.0      0.5578E-02
   163.0      0.4878E-02
   164.0      0.4243E-02
   165.0      0.3670E-02
   166.0      0.3157E-02
   167.0      0.2701E-02
   168.0      0.2300E-02
   169.0      0.1949E-02
   170.0      0.1645E-02
   171.0      0.1385E-02
   172.0      0.1165E-02
   173.0      0.9808E-03
   174.0      0.8284E-03
   175.0      0.7052E-03
   176.0      0.6086E-03
   177.0      0.5363E-03
   178.0      0.4865E-03
   179.0      0.4575E-03
   180.0      0.4479E-03
 END
