# 178 angles,  1 tensor ranks for 0=projectile
@subtitle   "20O + d Ex 7.639 3-;"                                                          
@legend ON
@legend x1 0.2
@legend y1 0.8
@g0 type LOGY
@yaxis ticklabel format power
@xaxis label "Scattering angle (degrees)"
@yaxis label "Cross section (mb/sr)"
@legend string   0 "Partition=  1 Excit=  1 near/far= 1"
#legend string   0 "Lab energy =   70.0000"
@s0 linestyle   1
#  Theta       sigma       iT11        T20         T21         T22         Kyy for projectile
   3.000      0.2748E+05
   4.000      0.1165E+05
   5.000       8264.    
   6.000       6773.    
   7.000       5566.    
   8.000       4418.    
   9.000       3349.    
   10.00       2408.    
   11.00       1630.    
   12.00       1027.    
   13.00       591.6    
   14.00       302.8    
   15.00       133.0    
   16.00       51.94    
   17.00       30.86    
   18.00       45.11    
   19.00       75.39    
   20.00       108.0    
   21.00       134.6    
   22.00       151.0    
   23.00       156.3    
   24.00       151.8    
   25.00       139.9    
   26.00       123.2    
   27.00       104.6    
   28.00       86.06    
   29.00       69.21    
   30.00       54.95    
   31.00       43.62    
   32.00       35.16    
   33.00       29.22    
   34.00       25.30    
   35.00       22.83    
   36.00       21.30    
   37.00       20.27    
   38.00       19.42    
   39.00       18.52    
   40.00       17.45    
   41.00       16.18    
   42.00       14.72    
   43.00       13.12    
   44.00       11.48    
   45.00       9.847    
   46.00       8.303    
   47.00       6.897    
   48.00       5.663    
   49.00       4.619    
   50.00       3.765    
   51.00       3.091    
   52.00       2.575    
   53.00       2.192    
   54.00       1.916    
   55.00       1.720    
   56.00       1.579    
   57.00       1.473    
   58.00       1.386    
   59.00       1.306    
   60.00       1.226    
   61.00       1.141    
   62.00       1.051    
   63.00      0.9552    
   64.00      0.8569    
   65.00      0.7586    
   66.00      0.6632    
   67.00      0.5732    
   68.00      0.4909    
   69.00      0.4177    
   70.00      0.3544    
   71.00      0.3011    
   72.00      0.2574    
   73.00      0.2223    
   74.00      0.1948    
   75.00      0.1734    
   76.00      0.1568    
   77.00      0.1437    
   78.00      0.1331    
   79.00      0.1239    
   80.00      0.1154    
   81.00      0.1071    
   82.00      0.9881E-01
   83.00      0.9032E-01
   84.00      0.8166E-01
   85.00      0.7294E-01
   86.00      0.6433E-01
   87.00      0.5600E-01
   88.00      0.4816E-01
   89.00      0.4095E-01
   90.00      0.3450E-01
   91.00      0.2887E-01
   92.00      0.2411E-01
   93.00      0.2018E-01
   94.00      0.1703E-01
   95.00      0.1458E-01
   96.00      0.1273E-01
   97.00      0.1136E-01
   98.00      0.1038E-01
   99.00      0.9668E-02
   100.0      0.9139E-02
   101.0      0.8713E-02
   102.0      0.8330E-02
   103.0      0.7947E-02
   104.0      0.7535E-02
   105.0      0.7081E-02
   106.0      0.6581E-02
   107.0      0.6042E-02
   108.0      0.5474E-02
   109.0      0.4893E-02
   110.0      0.4315E-02
   111.0      0.3754E-02
   112.0      0.3225E-02
   113.0      0.2738E-02
   114.0      0.2300E-02
   115.0      0.1916E-02
   116.0      0.1587E-02
   117.0      0.1311E-02
   118.0      0.1087E-02
   119.0      0.9073E-03
   120.0      0.7678E-03
   121.0      0.6617E-03
   122.0      0.5827E-03
   123.0      0.5249E-03
   124.0      0.4828E-03
   125.0      0.4517E-03
   126.0      0.4278E-03
   127.0      0.4081E-03
   128.0      0.3902E-03
   129.0      0.3727E-03
   130.0      0.3544E-03
   131.0      0.3350E-03
   132.0      0.3143E-03
   133.0      0.2925E-03
   134.0      0.2698E-03
   135.0      0.2468E-03
   136.0      0.2239E-03
   137.0      0.2016E-03
   138.0      0.1802E-03
   139.0      0.1601E-03
   140.0      0.1416E-03
   141.0      0.1250E-03
   142.0      0.1103E-03
   143.0      0.9754E-04
   144.0      0.8681E-04
   145.0      0.7804E-04
   146.0      0.7114E-04
   147.0      0.6602E-04
   148.0      0.6255E-04
   149.0      0.6060E-04
   150.0      0.6006E-04
   151.0      0.6077E-04
   152.0      0.6262E-04
   153.0      0.6545E-04
   154.0      0.6911E-04
   155.0      0.7344E-04
   156.0      0.7826E-04
   157.0      0.8336E-04
   158.0      0.8852E-04
   159.0      0.9350E-04
   160.0      0.9805E-04
   161.0      0.1019E-03
   162.0      0.1048E-03
   163.0      0.1066E-03
   164.0      0.1070E-03
   165.0      0.1060E-03
   166.0      0.1034E-03
   167.0      0.9922E-04
   168.0      0.9358E-04
   169.0      0.8659E-04
   170.0      0.7848E-04
   171.0      0.6953E-04
   172.0      0.6007E-04
   173.0      0.5048E-04
   174.0      0.4115E-04
   175.0      0.3245E-04
   176.0      0.2476E-04
   177.0      0.1840E-04
   178.0      0.1365E-04
   179.0      0.1072E-04
   180.0      0.9727E-05
 END
@legend string   1 "Partition=  1 Excit=  2 near/far= 1"
#legend string   0 "Lab energy =   70.0000"
@s1 linestyle   2
#  Theta       sigma       iT11        T20         T21         T22         Kyy for projectile
   3.000       13.57    
   4.000       16.44    
   5.000       19.42    
   6.000       22.23    
   7.000       24.72    
   8.000       26.87    
   9.000       28.77    
   10.00       30.59    
   11.00       32.51    
   12.00       34.63    
   13.00       36.95    
   14.00       39.36    
   15.00       41.63    
   16.00       43.48    
   17.00       44.63    
   18.00       44.83    
   19.00       43.94    
   20.00       41.94    
   21.00       38.94    
   22.00       35.15    
   23.00       30.88    
   24.00       26.45    
   25.00       22.18    
   26.00       18.36    
   27.00       15.17    
   28.00       12.74    
   29.00       11.09    
   30.00       10.17    
   31.00       9.838    
   32.00       9.952    
   33.00       10.33    
   34.00       10.82    
   35.00       11.26    
   36.00       11.54    
   37.00       11.60    
   38.00       11.42    
   39.00       10.99    
   40.00       10.36    
   41.00       9.571    
   42.00       8.692    
   43.00       7.784    
   44.00       6.902    
   45.00       6.089    
   46.00       5.374    
   47.00       4.772    
   48.00       4.286    
   49.00       3.905    
   50.00       3.614    
   51.00       3.391    
   52.00       3.215    
   53.00       3.064    
   54.00       2.923    
   55.00       2.776    
   56.00       2.617    
   57.00       2.441    
   58.00       2.249    
   59.00       2.044    
   60.00       1.832    
   61.00       1.620    
   62.00       1.413    
   63.00       1.218    
   64.00       1.040    
   65.00      0.8815    
   66.00      0.7448    
   67.00      0.6300    
   68.00      0.5362    
   69.00      0.4613    
   70.00      0.4028    
   71.00      0.3577    
   72.00      0.3229    
   73.00      0.2957    
   74.00      0.2735    
   75.00      0.2545    
   76.00      0.2370    
   77.00      0.2201    
   78.00      0.2032    
   79.00      0.1860    
   80.00      0.1687    
   81.00      0.1514    
   82.00      0.1344    
   83.00      0.1183    
   84.00      0.1032    
   85.00      0.8942E-01
   86.00      0.7721E-01
   87.00      0.6662E-01
   88.00      0.5764E-01
   89.00      0.5019E-01
   90.00      0.4410E-01
   91.00      0.3921E-01
   92.00      0.3530E-01
   93.00      0.3216E-01
   94.00      0.2958E-01
   95.00      0.2741E-01
   96.00      0.2549E-01
   97.00      0.2372E-01
   98.00      0.2202E-01
   99.00      0.2034E-01
   100.0      0.1868E-01
   101.0      0.1702E-01
   102.0      0.1538E-01
   103.0      0.1379E-01
   104.0      0.1228E-01
   105.0      0.1086E-01
   106.0      0.9569E-02
   107.0      0.8412E-02
   108.0      0.7401E-02
   109.0      0.6537E-02
   110.0      0.5816E-02
   111.0      0.5226E-02
   112.0      0.4753E-02
   113.0      0.4379E-02
   114.0      0.4086E-02
   115.0      0.3853E-02
   116.0      0.3665E-02
   117.0      0.3504E-02
   118.0      0.3357E-02
   119.0      0.3215E-02
   120.0      0.3069E-02
   121.0      0.2915E-02
   122.0      0.2751E-02
   123.0      0.2576E-02
   124.0      0.2393E-02
   125.0      0.2203E-02
   126.0      0.2011E-02
   127.0      0.1820E-02
   128.0      0.1634E-02
   129.0      0.1456E-02
   130.0      0.1290E-02
   131.0      0.1137E-02
   132.0      0.1000E-02
   133.0      0.8788E-03
   134.0      0.7740E-03
   135.0      0.6851E-03
   136.0      0.6113E-03
   137.0      0.5512E-03
   138.0      0.5032E-03
   139.0      0.4655E-03
   140.0      0.4363E-03
   141.0      0.4138E-03
   142.0      0.3964E-03
   143.0      0.3826E-03
   144.0      0.3709E-03
   145.0      0.3605E-03
   146.0      0.3503E-03
   147.0      0.3398E-03
   148.0      0.3287E-03
   149.0      0.3166E-03
   150.0      0.3037E-03
   151.0      0.2900E-03
   152.0      0.2756E-03
   153.0      0.2609E-03
   154.0      0.2459E-03
   155.0      0.2311E-03
   156.0      0.2166E-03
   157.0      0.2027E-03
   158.0      0.1896E-03
   159.0      0.1773E-03
   160.0      0.1660E-03
   161.0      0.1557E-03
   162.0      0.1465E-03
   163.0      0.1383E-03
   164.0      0.1310E-03
   165.0      0.1247E-03
   166.0      0.1192E-03
   167.0      0.1146E-03
   168.0      0.1107E-03
   169.0      0.1074E-03
   170.0      0.1047E-03
   171.0      0.1026E-03
   172.0      0.1009E-03
   173.0      0.9959E-04
   174.0      0.9862E-04
   175.0      0.9791E-04
   176.0      0.9739E-04
   177.0      0.9703E-04
   178.0      0.9679E-04
   179.0      0.9664E-04
   180.0      0.9660E-04
 END
