# 178 angles,  1 tensor ranks for 0=projectile
@subtitle   "20O + d Ex 8.57 4+3?;"                                                         
@legend ON
@legend x1 0.2
@legend y1 0.8
@g0 type LOGY
@yaxis ticklabel format power
@xaxis label "Scattering angle (degrees)"
@yaxis label "Cross section (mb/sr)"
@legend string   0 "Partition=  1 Excit=  1 near/far= 1"
#legend string   0 "Lab energy =   70.0000"
@s0 linestyle   1
#  Theta       sigma       iT11        T20         T21         T22         Kyy for projectile
   3.000      0.2715E+05
   4.000      0.1161E+05
   5.000       8322.    
   6.000       6849.    
   7.000       5629.    
   8.000       4456.    
   9.000       3362.    
   10.00       2401.    
   11.00       1611.    
   12.00       1003.    
   13.00       569.3    
   14.00       287.8    
   15.00       128.4    
   16.00       58.85    
   17.00       48.75    
   18.00       72.13    
   19.00       108.9    
   20.00       145.2    
   21.00       172.6    
   22.00       187.5    
   23.00       189.6    
   24.00       180.9    
   25.00       164.5    
   26.00       143.5    
   27.00       121.1    
   28.00       99.65    
   29.00       80.73    
   30.00       65.20    
   31.00       53.28    
   32.00       44.71    
   33.00       38.93    
   34.00       35.26    
   35.00       33.00    
   36.00       31.51    
   37.00       30.32    
   38.00       29.07    
   39.00       27.59    
   40.00       25.78    
   41.00       23.68    
   42.00       21.35    
   43.00       18.92    
   44.00       16.50    
   45.00       14.18    
   46.00       12.06    
   47.00       10.17    
   48.00       8.561    
   49.00       7.217    
   50.00       6.125    
   51.00       5.255    
   52.00       4.570    
   53.00       4.031    
   54.00       3.601    
   55.00       3.248    
   56.00       2.947    
   57.00       2.679    
   58.00       2.431    
   59.00       2.195    
   60.00       1.969    
   61.00       1.753    
   62.00       1.547    
   63.00       1.355    
   64.00       1.179    
   65.00       1.020    
   66.00      0.8790    
   67.00      0.7570    
   68.00      0.6530    
   69.00      0.5657    
   70.00      0.4932    
   71.00      0.4334    
   72.00      0.3842    
   73.00      0.3433    
   74.00      0.3090    
   75.00      0.2796    
   76.00      0.2538    
   77.00      0.2306    
   78.00      0.2093    
   79.00      0.1895    
   80.00      0.1709    
   81.00      0.1534    
   82.00      0.1372    
   83.00      0.1220    
   84.00      0.1082    
   85.00      0.9562E-01
   86.00      0.8437E-01
   87.00      0.7441E-01
   88.00      0.6570E-01
   89.00      0.5816E-01
   90.00      0.5168E-01
   91.00      0.4613E-01
   92.00      0.4138E-01
   93.00      0.3730E-01
   94.00      0.3377E-01
   95.00      0.3069E-01
   96.00      0.2795E-01
   97.00      0.2547E-01
   98.00      0.2321E-01
   99.00      0.2111E-01
   100.0      0.1915E-01
   101.0      0.1731E-01
   102.0      0.1558E-01
   103.0      0.1396E-01
   104.0      0.1245E-01
   105.0      0.1105E-01
   106.0      0.9771E-02
   107.0      0.8608E-02
   108.0      0.7564E-02
   109.0      0.6636E-02
   110.0      0.5820E-02
   111.0      0.5109E-02
   112.0      0.4496E-02
   113.0      0.3970E-02
   114.0      0.3522E-02
   115.0      0.3142E-02
   116.0      0.2819E-02
   117.0      0.2543E-02
   118.0      0.2306E-02
   119.0      0.2101E-02
   120.0      0.1919E-02
   121.0      0.1757E-02
   122.0      0.1610E-02
   123.0      0.1475E-02
   124.0      0.1349E-02
   125.0      0.1232E-02
   126.0      0.1121E-02
   127.0      0.1018E-02
   128.0      0.9209E-03
   129.0      0.8307E-03
   130.0      0.7474E-03
   131.0      0.6710E-03
   132.0      0.6017E-03
   133.0      0.5393E-03
   134.0      0.4837E-03
   135.0      0.4346E-03
   136.0      0.3914E-03
   137.0      0.3538E-03
   138.0      0.3212E-03
   139.0      0.2929E-03
   140.0      0.2684E-03
   141.0      0.2470E-03
   142.0      0.2282E-03
   143.0      0.2115E-03
   144.0      0.1965E-03
   145.0      0.1828E-03
   146.0      0.1702E-03
   147.0      0.1584E-03
   148.0      0.1472E-03
   149.0      0.1365E-03
   150.0      0.1264E-03
   151.0      0.1167E-03
   152.0      0.1074E-03
   153.0      0.9850E-04
   154.0      0.9007E-04
   155.0      0.8210E-04
   156.0      0.7462E-04
   157.0      0.6767E-04
   158.0      0.6129E-04
   159.0      0.5554E-04
   160.0      0.5048E-04
   161.0      0.4617E-04
   162.0      0.4269E-04
   163.0      0.4012E-04
   164.0      0.3851E-04
   165.0      0.3791E-04
   166.0      0.3837E-04
   167.0      0.3987E-04
   168.0      0.4238E-04
   169.0      0.4583E-04
   170.0      0.5009E-04
   171.0      0.5500E-04
   172.0      0.6037E-04
   173.0      0.6596E-04
   174.0      0.7151E-04
   175.0      0.7678E-04
   176.0      0.8151E-04
   177.0      0.8545E-04
   178.0      0.8843E-04
   179.0      0.9027E-04
   180.0      0.9090E-04
 END
@legend string   1 "Partition=  1 Excit=  2 near/far= 1"
#legend string   0 "Lab energy =   70.0000"
@s1 linestyle   2
#  Theta       sigma       iT11        T20         T21         T22         Kyy for projectile
   3.000       3.367    
   4.000       3.237    
   5.000       3.098    
   6.000       2.964    
   7.000       2.849    
   8.000       2.762    
   9.000       2.711    
   10.00       2.703    
   11.00       2.745    
   12.00       2.840    
   13.00       2.993    
   14.00       3.206    
   15.00       3.473    
   16.00       3.786    
   17.00       4.129    
   18.00       4.480    
   19.00       4.812    
   20.00       5.098    
   21.00       5.312    
   22.00       5.431    
   23.00       5.443    
   24.00       5.341    
   25.00       5.131    
   26.00       4.827    
   27.00       4.449    
   28.00       4.023    
   29.00       3.578    
   30.00       3.140    
   31.00       2.731    
   32.00       2.372    
   33.00       2.072    
   34.00       1.838    
   35.00       1.668    
   36.00       1.556    
   37.00       1.492    
   38.00       1.463    
   39.00       1.456    
   40.00       1.460    
   41.00       1.462    
   42.00       1.456    
   43.00       1.435    
   44.00       1.397    
   45.00       1.341    
   46.00       1.269    
   47.00       1.184    
   48.00       1.090    
   49.00      0.9920    
   50.00      0.8936    
   51.00      0.7985    
   52.00      0.7094    
   53.00      0.6284    
   54.00      0.5565    
   55.00      0.4939    
   56.00      0.4404    
   57.00      0.3950    
   58.00      0.3566    
   59.00      0.3239    
   60.00      0.2956    
   61.00      0.2706    
   62.00      0.2479    
   63.00      0.2268    
   64.00      0.2068    
   65.00      0.1875    
   66.00      0.1689    
   67.00      0.1511    
   68.00      0.1341    
   69.00      0.1181    
   70.00      0.1033    
   71.00      0.8975E-01
   72.00      0.7765E-01
   73.00      0.6702E-01
   74.00      0.5782E-01
   75.00      0.5001E-01
   76.00      0.4348E-01
   77.00      0.3808E-01
   78.00      0.3365E-01
   79.00      0.3004E-01
   80.00      0.2707E-01
   81.00      0.2461E-01
   82.00      0.2251E-01
   83.00      0.2068E-01
   84.00      0.1904E-01
   85.00      0.1751E-01
   86.00      0.1607E-01
   87.00      0.1468E-01
   88.00      0.1334E-01
   89.00      0.1204E-01
   90.00      0.1081E-01
   91.00      0.9636E-02
   92.00      0.8541E-02
   93.00      0.7531E-02
   94.00      0.6613E-02
   95.00      0.5791E-02
   96.00      0.5064E-02
   97.00      0.4431E-02
   98.00      0.3885E-02
   99.00      0.3420E-02
   100.0      0.3026E-02
   101.0      0.2694E-02
   102.0      0.2414E-02
   103.0      0.2177E-02
   104.0      0.1975E-02
   105.0      0.1801E-02
   106.0      0.1648E-02
   107.0      0.1513E-02
   108.0      0.1390E-02
   109.0      0.1278E-02
   110.0      0.1175E-02
   111.0      0.1080E-02
   112.0      0.9919E-03
   113.0      0.9104E-03
   114.0      0.8356E-03
   115.0      0.7673E-03
   116.0      0.7055E-03
   117.0      0.6501E-03
   118.0      0.6007E-03
   119.0      0.5570E-03
   120.0      0.5184E-03
   121.0      0.4844E-03
   122.0      0.4544E-03
   123.0      0.4276E-03
   124.0      0.4035E-03
   125.0      0.3813E-03
   126.0      0.3606E-03
   127.0      0.3410E-03
   128.0      0.3219E-03
   129.0      0.3033E-03
   130.0      0.2848E-03
   131.0      0.2664E-03
   132.0      0.2482E-03
   133.0      0.2301E-03
   134.0      0.2122E-03
   135.0      0.1948E-03
   136.0      0.1779E-03
   137.0      0.1617E-03
   138.0      0.1464E-03
   139.0      0.1321E-03
   140.0      0.1189E-03
   141.0      0.1069E-03
   142.0      0.9618E-04
   143.0      0.8673E-04
   144.0      0.7857E-04
   145.0      0.7168E-04
   146.0      0.6600E-04
   147.0      0.6148E-04
   148.0      0.5803E-04
   149.0      0.5554E-04
   150.0      0.5388E-04
   151.0      0.5295E-04
   152.0      0.5260E-04
   153.0      0.5270E-04
   154.0      0.5312E-04
   155.0      0.5373E-04
   156.0      0.5439E-04
   157.0      0.5499E-04
   158.0      0.5542E-04
   159.0      0.5561E-04
   160.0      0.5547E-04
   161.0      0.5497E-04
   162.0      0.5408E-04
   163.0      0.5279E-04
   164.0      0.5111E-04
   165.0      0.4907E-04
   166.0      0.4673E-04
   167.0      0.4413E-04
   168.0      0.4136E-04
   169.0      0.3848E-04
   170.0      0.3558E-04
   171.0      0.3272E-04
   172.0      0.2997E-04
   173.0      0.2741E-04
   174.0      0.2507E-04
   175.0      0.2303E-04
   176.0      0.2130E-04
   177.0      0.1994E-04
   178.0      0.1895E-04
   179.0      0.1835E-04
   180.0      0.1815E-04
 END
