# 181 angles,  1 tensor ranks for 0=projectile
@subtitle   "20O(p,d) @ 30AMeV CH89 (p) + ADWA (d) 1st ex"                                  
@legend ON
@legend x1 0.2
@legend y1 0.8
@g0 type LOGY
@yaxis ticklabel format power
@xaxis label "Scattering angle (degrees)"
@yaxis label "Cross section (mb/sr)"
@legend string   0 "Partition=  1 Excit=  1 near/far= 1"
#legend string   0 "Lab energy =   35.0000"
@s0 linestyle   1
#  Theta       sigma       iT11        T20         T21         T22         Kyy for projectile
  0.1000E-01  0.1288E+16
   1.000      0.1252E+08
   2.000      0.7271E+06
   3.000      0.1300E+06
   4.000      0.3716E+05
   5.000      0.1421E+05
   6.000       6905.    
   7.000       4165.    
   8.000       3003.    
   9.000       2448.    
   10.00       2143.    
   11.00       1945.    
   12.00       1792.    
   13.00       1658.    
   14.00       1533.    
   15.00       1411.    
   16.00       1291.    
   17.00       1173.    
   18.00       1058.    
   19.00       947.2    
   20.00       841.3    
   21.00       741.2    
   22.00       647.5    
   23.00       560.8    
   24.00       481.3    
   25.00       409.2    
   26.00       344.6    
   27.00       287.3    
   28.00       237.0    
   29.00       193.4    
   30.00       156.1    
   31.00       124.7    
   32.00       98.58    
   33.00       77.27    
   34.00       60.23    
   35.00       46.92    
   36.00       36.83    
   37.00       29.48    
   38.00       24.40    
   39.00       21.16    
   40.00       19.39    
   41.00       18.73    
   42.00       18.90    
   43.00       19.62    
   44.00       20.68    
   45.00       21.90    
   46.00       23.14    
   47.00       24.28    
   48.00       25.25    
   49.00       25.97    
   50.00       26.43    
   51.00       26.60    
   52.00       26.48    
   53.00       26.08    
   54.00       25.43    
   55.00       24.55    
   56.00       23.48    
   57.00       22.25    
   58.00       20.89    
   59.00       19.44    
   60.00       17.94    
   61.00       16.42    
   62.00       14.90    
   63.00       13.41    
   64.00       11.98    
   65.00       10.61    
   66.00       9.320    
   67.00       8.126    
   68.00       7.031    
   69.00       6.040    
   70.00       5.153    
   71.00       4.369    
   72.00       3.686    
   73.00       3.099    
   74.00       2.603    
   75.00       2.189    
   76.00       1.851    
   77.00       1.581    
   78.00       1.372    
   79.00       1.214    
   80.00       1.101    
   81.00       1.024    
   82.00      0.9780    
   83.00      0.9557    
   84.00      0.9514    
   85.00      0.9601    
   86.00      0.9773    
   87.00      0.9993    
   88.00       1.023    
   89.00       1.045    
   90.00       1.064    
   91.00       1.078    
   92.00       1.086    
   93.00       1.088    
   94.00       1.083    
   95.00       1.070    
   96.00       1.051    
   97.00       1.025    
   98.00      0.9925    
   99.00      0.9552    
   100.0      0.9132    
   101.0      0.8674    
   102.0      0.8185    
   103.0      0.7675    
   104.0      0.7151    
   105.0      0.6620    
   106.0      0.6090    
   107.0      0.5567    
   108.0      0.5056    
   109.0      0.4563    
   110.0      0.4092    
   111.0      0.3646    
   112.0      0.3228    
   113.0      0.2841    
   114.0      0.2485    
   115.0      0.2162    
   116.0      0.1872    
   117.0      0.1614    
   118.0      0.1388    
   119.0      0.1192    
   120.0      0.1026    
   121.0      0.8867E-01
   122.0      0.7733E-01
   123.0      0.6833E-01
   124.0      0.6146E-01
   125.0      0.5648E-01
   126.0      0.5317E-01
   127.0      0.5129E-01
   128.0      0.5062E-01
   129.0      0.5095E-01
   130.0      0.5206E-01
   131.0      0.5377E-01
   132.0      0.5591E-01
   133.0      0.5830E-01
   134.0      0.6081E-01
   135.0      0.6330E-01
   136.0      0.6568E-01
   137.0      0.6785E-01
   138.0      0.6974E-01
   139.0      0.7130E-01
   140.0      0.7250E-01
   141.0      0.7332E-01
   142.0      0.7374E-01
   143.0      0.7378E-01
   144.0      0.7347E-01
   145.0      0.7283E-01
   146.0      0.7191E-01
   147.0      0.7075E-01
   148.0      0.6941E-01
   149.0      0.6795E-01
   150.0      0.6642E-01
   151.0      0.6489E-01
   152.0      0.6342E-01
   153.0      0.6206E-01
   154.0      0.6086E-01
   155.0      0.5988E-01
   156.0      0.5915E-01
   157.0      0.5871E-01
   158.0      0.5857E-01
   159.0      0.5877E-01
   160.0      0.5930E-01
   161.0      0.6017E-01
   162.0      0.6137E-01
   163.0      0.6287E-01
   164.0      0.6466E-01
   165.0      0.6671E-01
   166.0      0.6896E-01
   167.0      0.7138E-01
   168.0      0.7392E-01
   169.0      0.7653E-01
   170.0      0.7915E-01
   171.0      0.8173E-01
   172.0      0.8421E-01
   173.0      0.8654E-01
   174.0      0.8867E-01
   175.0      0.9056E-01
   176.0      0.9216E-01
   177.0      0.9345E-01
   178.0      0.9439E-01
   179.0      0.9496E-01
   180.0      0.9515E-01
 END
@legend string   1 "Partition=  2 Excit=  1 near/far= 1"
#legend string   0 "Lab energy =   35.0000"
@s1 linestyle   2
#  Theta       sigma       iT11        T20         T21         T22         Kyy for projectile
   0.000       39.46    
   1.000       38.93    
   2.000       37.39    
   3.000       34.93    
   4.000       31.70    
   5.000       27.91    
   6.000       23.77    
   7.000       19.53    
   8.000       15.40    
   9.000       11.58    
   10.00       8.226    
   11.00       5.455    
   12.00       3.331    
   13.00       1.872    
   14.00       1.052    
   15.00      0.8081    
   16.00       1.052    
   17.00       1.679    
   18.00       2.573    
   19.00       3.623    
   20.00       4.725    
   21.00       5.787    
   22.00       6.736    
   23.00       7.518    
   24.00       8.097    
   25.00       8.457    
   26.00       8.595    
   27.00       8.525    
   28.00       8.267    
   29.00       7.853    
   30.00       7.314    
   31.00       6.686    
   32.00       6.004    
   33.00       5.297    
   34.00       4.595    
   35.00       3.921    
   36.00       3.292    
   37.00       2.721    
   38.00       2.218    
   39.00       1.785    
   40.00       1.424    
   41.00       1.131    
   42.00      0.9022    
   43.00      0.7302    
   44.00      0.6078    
   45.00      0.5268    
   46.00      0.4793    
   47.00      0.4578    
   48.00      0.4554    
   49.00      0.4658    
   50.00      0.4838    
   51.00      0.5053    
   52.00      0.5269    
   53.00      0.5461    
   54.00      0.5612    
   55.00      0.5711    
   56.00      0.5754    
   57.00      0.5740    
   58.00      0.5670    
   59.00      0.5551    
   60.00      0.5387    
   61.00      0.5187    
   62.00      0.4957    
   63.00      0.4704    
   64.00      0.4435    
   65.00      0.4155    
   66.00      0.3870    
   67.00      0.3583    
   68.00      0.3300    
   69.00      0.3023    
   70.00      0.2754    
   71.00      0.2496    
   72.00      0.2250    
   73.00      0.2018    
   74.00      0.1801    
   75.00      0.1599    
   76.00      0.1414    
   77.00      0.1245    
   78.00      0.1094    
   79.00      0.9610E-01
   80.00      0.8449E-01
   81.00      0.7461E-01
   82.00      0.6642E-01
   83.00      0.5986E-01
   84.00      0.5484E-01
   85.00      0.5128E-01
   86.00      0.4906E-01
   87.00      0.4803E-01
   88.00      0.4806E-01
   89.00      0.4898E-01
   90.00      0.5064E-01
   91.00      0.5285E-01
   92.00      0.5546E-01
   93.00      0.5830E-01
   94.00      0.6121E-01
   95.00      0.6403E-01
   96.00      0.6665E-01
   97.00      0.6894E-01
   98.00      0.7081E-01
   99.00      0.7218E-01
   100.0      0.7299E-01
   101.0      0.7321E-01
   102.0      0.7282E-01
   103.0      0.7184E-01
   104.0      0.7028E-01
   105.0      0.6819E-01
   106.0      0.6562E-01
   107.0      0.6264E-01
   108.0      0.5933E-01
   109.0      0.5576E-01
   110.0      0.5202E-01
   111.0      0.4820E-01
   112.0      0.4436E-01
   113.0      0.4059E-01
   114.0      0.3694E-01
   115.0      0.3348E-01
   116.0      0.3026E-01
   117.0      0.2730E-01
   118.0      0.2464E-01
   119.0      0.2228E-01
   120.0      0.2022E-01
   121.0      0.1847E-01
   122.0      0.1700E-01
   123.0      0.1579E-01
   124.0      0.1483E-01
   125.0      0.1407E-01
   126.0      0.1350E-01
   127.0      0.1307E-01
   128.0      0.1277E-01
   129.0      0.1257E-01
   130.0      0.1245E-01
   131.0      0.1239E-01
   132.0      0.1238E-01
   133.0      0.1241E-01
   134.0      0.1247E-01
   135.0      0.1255E-01
   136.0      0.1266E-01
   137.0      0.1280E-01
   138.0      0.1296E-01
   139.0      0.1314E-01
   140.0      0.1334E-01
   141.0      0.1355E-01
   142.0      0.1376E-01
   143.0      0.1397E-01
   144.0      0.1415E-01
   145.0      0.1430E-01
   146.0      0.1439E-01
   147.0      0.1441E-01
   148.0      0.1434E-01
   149.0      0.1417E-01
   150.0      0.1389E-01
   151.0      0.1348E-01
   152.0      0.1295E-01
   153.0      0.1230E-01
   154.0      0.1153E-01
   155.0      0.1067E-01
   156.0      0.9739E-02
   157.0      0.8753E-02
   158.0      0.7746E-02
   159.0      0.6751E-02
   160.0      0.5802E-02
   161.0      0.4933E-02
   162.0      0.4174E-02
   163.0      0.3555E-02
   164.0      0.3098E-02
   165.0      0.2819E-02
   166.0      0.2729E-02
   167.0      0.2827E-02
   168.0      0.3107E-02
   169.0      0.3554E-02
   170.0      0.4143E-02
   171.0      0.4845E-02
   172.0      0.5626E-02
   173.0      0.6445E-02
   174.0      0.7263E-02
   175.0      0.8039E-02
   176.0      0.8735E-02
   177.0      0.9315E-02
   178.0      0.9751E-02
   179.0      0.1002E-01
   180.0      0.1011E-01
 END
@legend string   2 "Partition=  2 Excit=  2 near/far= 1"
#legend string   0 "Lab energy =   35.0000"
@s2 linestyle   3
#  Theta       sigma       iT11        T20         T21         T22         Kyy for projectile
   0.000       5.141    
   1.000       5.192    
   2.000       5.337    
   3.000       5.561    
   4.000       5.841    
   5.000       6.146    
   6.000       6.442    
   7.000       6.698    
   8.000       6.883    
   9.000       6.974    
   10.00       6.953    
   11.00       6.815    
   12.00       6.561    
   13.00       6.200    
   14.00       5.748    
   15.00       5.227    
   16.00       4.661    
   17.00       4.076    
   18.00       3.495    
   19.00       2.941    
   20.00       2.432    
   21.00       1.982    
   22.00       1.598    
   23.00       1.287    
   24.00       1.046    
   25.00      0.8741    
   26.00      0.7629    
   27.00      0.7039    
   28.00      0.6870    
   29.00      0.7017    
   30.00      0.7375    
   31.00      0.7848    
   32.00      0.8352    
   33.00      0.8816    
   34.00      0.9189    
   35.00      0.9431    
   36.00      0.9522    
   37.00      0.9454    
   38.00      0.9232    
   39.00      0.8869    
   40.00      0.8388    
   41.00      0.7813    
   42.00      0.7172    
   43.00      0.6495    
   44.00      0.5808    
   45.00      0.5136    
   46.00      0.4499    
   47.00      0.3913    
   48.00      0.3391    
   49.00      0.2940    
   50.00      0.2563    
   51.00      0.2260    
   52.00      0.2027    
   53.00      0.1859    
   54.00      0.1747    
   55.00      0.1682    
   56.00      0.1654    
   57.00      0.1655    
   58.00      0.1674    
   59.00      0.1704    
   60.00      0.1736    
   61.00      0.1764    
   62.00      0.1784    
   63.00      0.1792    
   64.00      0.1785    
   65.00      0.1763    
   66.00      0.1725    
   67.00      0.1673    
   68.00      0.1606    
   69.00      0.1529    
   70.00      0.1442    
   71.00      0.1349    
   72.00      0.1252    
   73.00      0.1154    
   74.00      0.1056    
   75.00      0.9616E-01
   76.00      0.8719E-01
   77.00      0.7885E-01
   78.00      0.7123E-01
   79.00      0.6441E-01
   80.00      0.5842E-01
   81.00      0.5327E-01
   82.00      0.4893E-01
   83.00      0.4536E-01
   84.00      0.4250E-01
   85.00      0.4027E-01
   86.00      0.3858E-01
   87.00      0.3735E-01
   88.00      0.3647E-01
   89.00      0.3586E-01
   90.00      0.3544E-01
   91.00      0.3513E-01
   92.00      0.3485E-01
   93.00      0.3456E-01
   94.00      0.3421E-01
   95.00      0.3375E-01
   96.00      0.3317E-01
   97.00      0.3245E-01
   98.00      0.3159E-01
   99.00      0.3058E-01
   100.0      0.2944E-01
   101.0      0.2817E-01
   102.0      0.2681E-01
   103.0      0.2537E-01
   104.0      0.2387E-01
   105.0      0.2234E-01
   106.0      0.2080E-01
   107.0      0.1928E-01
   108.0      0.1779E-01
   109.0      0.1636E-01
   110.0      0.1499E-01
   111.0      0.1370E-01
   112.0      0.1250E-01
   113.0      0.1140E-01
   114.0      0.1040E-01
   115.0      0.9494E-02
   116.0      0.8692E-02
   117.0      0.7989E-02
   118.0      0.7379E-02
   119.0      0.6858E-02
   120.0      0.6421E-02
   121.0      0.6059E-02
   122.0      0.5767E-02
   123.0      0.5536E-02
   124.0      0.5361E-02
   125.0      0.5233E-02
   126.0      0.5146E-02
   127.0      0.5093E-02
   128.0      0.5066E-02
   129.0      0.5061E-02
   130.0      0.5070E-02
   131.0      0.5087E-02
   132.0      0.5107E-02
   133.0      0.5125E-02
   134.0      0.5136E-02
   135.0      0.5134E-02
   136.0      0.5118E-02
   137.0      0.5083E-02
   138.0      0.5027E-02
   139.0      0.4948E-02
   140.0      0.4847E-02
   141.0      0.4724E-02
   142.0      0.4580E-02
   143.0      0.4418E-02
   144.0      0.4241E-02
   145.0      0.4052E-02
   146.0      0.3858E-02
   147.0      0.3662E-02
   148.0      0.3470E-02
   149.0      0.3288E-02
   150.0      0.3121E-02
   151.0      0.2973E-02
   152.0      0.2849E-02
   153.0      0.2751E-02
   154.0      0.2682E-02
   155.0      0.2644E-02
   156.0      0.2636E-02
   157.0      0.2658E-02
   158.0      0.2707E-02
   159.0      0.2780E-02
   160.0      0.2874E-02
   161.0      0.2984E-02
   162.0      0.3106E-02
   163.0      0.3234E-02
   164.0      0.3365E-02
   165.0      0.3493E-02
   166.0      0.3614E-02
   167.0      0.3726E-02
   168.0      0.3826E-02
   169.0      0.3912E-02
   170.0      0.3983E-02
   171.0      0.4040E-02
   172.0      0.4083E-02
   173.0      0.4113E-02
   174.0      0.4133E-02
   175.0      0.4145E-02
   176.0      0.4151E-02
   177.0      0.4153E-02
   178.0      0.4152E-02
   179.0      0.4152E-02
   180.0      0.4151E-02
 END
@legend string   3 "Partition=  2 Excit=  3 near/far= 1"
#legend string   0 "Lab energy =   35.0000"
@s3 linestyle   4
#  Theta       sigma       iT11        T20         T21         T22         Kyy for projectile
   0.000       6.738    
   1.000       6.724    
   2.000       6.683    
   3.000       6.619    
   4.000       6.535    
   5.000       6.438    
   6.000       6.332    
   7.000       6.223    
   8.000       6.114    
   9.000       6.006    
   10.00       5.900    
   11.00       5.794    
   12.00       5.683    
   13.00       5.563    
   14.00       5.430    
   15.00       5.276    
   16.00       5.099    
   17.00       4.895    
   18.00       4.664    
   19.00       4.404    
   20.00       4.120    
   21.00       3.815    
   22.00       3.495    
   23.00       3.168    
   24.00       2.841    
   25.00       2.522    
   26.00       2.218    
   27.00       1.937    
   28.00       1.684    
   29.00       1.463    
   30.00       1.278    
   31.00       1.130    
   32.00       1.020    
   33.00      0.9449    
   34.00      0.9033    
   35.00      0.8912    
   36.00      0.9043    
   37.00      0.9378    
   38.00      0.9866    
   39.00       1.046    
   40.00       1.110    
   41.00       1.175    
   42.00       1.238    
   43.00       1.294    
   44.00       1.341    
   45.00       1.378    
   46.00       1.403    
   47.00       1.416    
   48.00       1.416    
   49.00       1.405    
   50.00       1.383    
   51.00       1.352    
   52.00       1.313    
   53.00       1.268    
   54.00       1.219    
   55.00       1.167    
   56.00       1.114    
   57.00       1.062    
   58.00       1.011    
   59.00      0.9629    
   60.00      0.9181    
   61.00      0.8772    
   62.00      0.8406    
   63.00      0.8083    
   64.00      0.7804    
   65.00      0.7565    
   66.00      0.7364    
   67.00      0.7195    
   68.00      0.7053    
   69.00      0.6933    
   70.00      0.6830    
   71.00      0.6737    
   72.00      0.6650    
   73.00      0.6564    
   74.00      0.6474    
   75.00      0.6377    
   76.00      0.6271    
   77.00      0.6154    
   78.00      0.6024    
   79.00      0.5882    
   80.00      0.5726    
   81.00      0.5559    
   82.00      0.5381    
   83.00      0.5193    
   84.00      0.4998    
   85.00      0.4798    
   86.00      0.4595    
   87.00      0.4390    
   88.00      0.4186    
   89.00      0.3985    
   90.00      0.3789    
   91.00      0.3600    
   92.00      0.3418    
   93.00      0.3244    
   94.00      0.3080    
   95.00      0.2926    
   96.00      0.2783    
   97.00      0.2649    
   98.00      0.2526    
   99.00      0.2413    
   100.0      0.2309    
   101.0      0.2214    
   102.0      0.2128    
   103.0      0.2048    
   104.0      0.1975    
   105.0      0.1908    
   106.0      0.1846    
   107.0      0.1788    
   108.0      0.1734    
   109.0      0.1684    
   110.0      0.1635    
   111.0      0.1589    
   112.0      0.1544    
   113.0      0.1500    
   114.0      0.1458    
   115.0      0.1416    
   116.0      0.1375    
   117.0      0.1334    
   118.0      0.1294    
   119.0      0.1254    
   120.0      0.1214    
   121.0      0.1175    
   122.0      0.1135    
   123.0      0.1096    
   124.0      0.1058    
   125.0      0.1019    
   126.0      0.9810E-01
   127.0      0.9433E-01
   128.0      0.9060E-01
   129.0      0.8693E-01
   130.0      0.8333E-01
   131.0      0.7980E-01
   132.0      0.7636E-01
   133.0      0.7303E-01
   134.0      0.6981E-01
   135.0      0.6673E-01
   136.0      0.6380E-01
   137.0      0.6104E-01
   138.0      0.5847E-01
   139.0      0.5609E-01
   140.0      0.5392E-01
   141.0      0.5198E-01
   142.0      0.5028E-01
   143.0      0.4882E-01
   144.0      0.4760E-01
   145.0      0.4663E-01
   146.0      0.4591E-01
   147.0      0.4544E-01
   148.0      0.4520E-01
   149.0      0.4518E-01
   150.0      0.4538E-01
   151.0      0.4578E-01
   152.0      0.4637E-01
   153.0      0.4713E-01
   154.0      0.4804E-01
   155.0      0.4909E-01
   156.0      0.5025E-01
   157.0      0.5152E-01
   158.0      0.5287E-01
   159.0      0.5429E-01
   160.0      0.5576E-01
   161.0      0.5727E-01
   162.0      0.5880E-01
   163.0      0.6035E-01
   164.0      0.6189E-01
   165.0      0.6342E-01
   166.0      0.6493E-01
   167.0      0.6640E-01
   168.0      0.6782E-01
   169.0      0.6918E-01
   170.0      0.7047E-01
   171.0      0.7168E-01
   172.0      0.7280E-01
   173.0      0.7381E-01
   174.0      0.7472E-01
   175.0      0.7550E-01
   176.0      0.7615E-01
   177.0      0.7666E-01
   178.0      0.7703E-01
   179.0      0.7725E-01
   180.0      0.7733E-01
 END
