# 178 angles,  1 tensor ranks for 0=projectile
@subtitle   "p+O20 1st with BG ;"                                                           
@legend ON
@legend x1 0.2
@legend y1 0.8
@g0 type LOGY
@yaxis ticklabel format power
@xaxis label "Scattering angle (degrees)"
@yaxis label "Cross section (mb/sr)"
@legend string   0 "Partition=  1 Excit=  1 near/far= 1"
#legend string   0 "Lab energy =   43.0000"
@s0 linestyle   1
#  Theta       sigma       iT11        T20         T21         T22         Kyy for projectile
   3.000      0.7887E+05
   4.000      0.2170E+05
   5.000       8369.    
   6.000       4448.    
   7.000       3118.    
   8.000       2607.    
   9.000       2368.    
   10.00       2216.    
   11.00       2086.    
   12.00       1955.    
   13.00       1816.    
   14.00       1671.    
   15.00       1522.    
   16.00       1372.    
   17.00       1225.    
   18.00       1082.    
   19.00       946.2    
   20.00       819.2    
   21.00       702.0    
   22.00       595.4    
   23.00       499.7    
   24.00       415.0    
   25.00       341.0    
   26.00       277.3    
   27.00       223.3    
   28.00       178.1    
   29.00       141.0    
   30.00       111.1    
   31.00       87.43    
   32.00       69.22    
   33.00       55.59    
   34.00       45.76    
   35.00       38.98    
   36.00       34.62    
   37.00       32.09    
   38.00       30.89    
   39.00       30.60    
   40.00       30.88    
   41.00       31.43    
   42.00       32.05    
   43.00       32.58    
   44.00       32.89    
   45.00       32.92    
   46.00       32.63    
   47.00       32.02    
   48.00       31.08    
   49.00       29.87    
   50.00       28.40    
   51.00       26.74    
   52.00       24.92    
   53.00       23.01    
   54.00       21.04    
   55.00       19.06    
   56.00       17.11    
   57.00       15.23    
   58.00       13.44    
   59.00       11.76    
   60.00       10.21    
   61.00       8.796    
   62.00       7.530    
   63.00       6.408    
   64.00       5.429    
   65.00       4.587    
   66.00       3.872    
   67.00       3.276    
   68.00       2.787    
   69.00       2.392    
   70.00       2.081    
   71.00       1.840    
   72.00       1.660    
   73.00       1.527    
   74.00       1.434    
   75.00       1.370    
   76.00       1.328    
   77.00       1.301    
   78.00       1.283    
   79.00       1.270    
   80.00       1.258    
   81.00       1.244    
   82.00       1.226    
   83.00       1.203    
   84.00       1.174    
   85.00       1.138    
   86.00       1.096    
   87.00       1.049    
   88.00      0.9965    
   89.00      0.9402    
   90.00      0.8807    
   91.00      0.8192    
   92.00      0.7566    
   93.00      0.6939    
   94.00      0.6320    
   95.00      0.5717    
   96.00      0.5136    
   97.00      0.4584    
   98.00      0.4065    
   99.00      0.3583    
   100.0      0.3140    
   101.0      0.2737    
   102.0      0.2374    
   103.0      0.2052    
   104.0      0.1769    
   105.0      0.1524    
   106.0      0.1314    
   107.0      0.1137    
   108.0      0.9900E-01
   109.0      0.8700E-01
   110.0      0.7741E-01
   111.0      0.6993E-01
   112.0      0.6427E-01
   113.0      0.6014E-01
   114.0      0.5727E-01
   115.0      0.5543E-01
   116.0      0.5438E-01
   117.0      0.5393E-01
   118.0      0.5389E-01
   119.0      0.5412E-01
   120.0      0.5448E-01
   121.0      0.5486E-01
   122.0      0.5518E-01
   123.0      0.5536E-01
   124.0      0.5536E-01
   125.0      0.5513E-01
   126.0      0.5466E-01
   127.0      0.5394E-01
   128.0      0.5296E-01
   129.0      0.5173E-01
   130.0      0.5027E-01
   131.0      0.4859E-01
   132.0      0.4672E-01
   133.0      0.4468E-01
   134.0      0.4250E-01
   135.0      0.4021E-01
   136.0      0.3783E-01
   137.0      0.3539E-01
   138.0      0.3293E-01
   139.0      0.3045E-01
   140.0      0.2800E-01
   141.0      0.2558E-01
   142.0      0.2322E-01
   143.0      0.2095E-01
   144.0      0.1876E-01
   145.0      0.1669E-01
   146.0      0.1474E-01
   147.0      0.1293E-01
   148.0      0.1126E-01
   149.0      0.9755E-02
   150.0      0.8409E-02
   151.0      0.7231E-02
   152.0      0.6227E-02
   153.0      0.5399E-02
   154.0      0.4748E-02
   155.0      0.4274E-02
   156.0      0.3974E-02
   157.0      0.3845E-02
   158.0      0.3880E-02
   159.0      0.4074E-02
   160.0      0.4416E-02
   161.0      0.4896E-02
   162.0      0.5501E-02
   163.0      0.6219E-02
   164.0      0.7033E-02
   165.0      0.7927E-02
   166.0      0.8885E-02
   167.0      0.9887E-02
   168.0      0.1092E-01
   169.0      0.1195E-01
   170.0      0.1297E-01
   171.0      0.1397E-01
   172.0      0.1491E-01
   173.0      0.1579E-01
   174.0      0.1658E-01
   175.0      0.1728E-01
   176.0      0.1788E-01
   177.0      0.1835E-01
   178.0      0.1869E-01
   179.0      0.1890E-01
   180.0      0.1897E-01
 END
@legend string   1 "Partition=  1 Excit=  2 near/far= 1"
#legend string   0 "Lab energy =   43.0000"
@s1 linestyle   2
#  Theta       sigma       iT11        T20         T21         T22         Kyy for projectile
   3.000       7.762    
   4.000       7.730    
   5.000       7.597    
   6.000       7.364    
   7.000       7.065    
   8.000       6.741    
   9.000       6.423    
   10.00       6.130    
   11.00       5.870    
   12.00       5.646    
   13.00       5.462    
   14.00       5.325    
   15.00       5.233    
   16.00       5.184    
   17.00       5.167    
   18.00       5.177    
   19.00       5.209    
   20.00       5.258    
   21.00       5.317    
   22.00       5.375    
   23.00       5.417    
   24.00       5.432    
   25.00       5.413    
   26.00       5.360    
   27.00       5.274    
   28.00       5.156    
   29.00       5.003    
   30.00       4.813    
   31.00       4.587    
   32.00       4.330    
   33.00       4.050    
   34.00       3.756    
   35.00       3.455    
   36.00       3.152    
   37.00       2.850    
   38.00       2.555    
   39.00       2.272    
   40.00       2.007    
   41.00       1.764    
   42.00       1.547    
   43.00       1.354    
   44.00       1.188    
   45.00       1.048    
   46.00      0.9338    
   47.00      0.8441    
   48.00      0.7769    
   49.00      0.7295    
   50.00      0.6989    
   51.00      0.6826    
   52.00      0.6781    
   53.00      0.6829    
   54.00      0.6943    
   55.00      0.7091    
   56.00      0.7247    
   57.00      0.7389    
   58.00      0.7507    
   59.00      0.7592    
   60.00      0.7637    
   61.00      0.7633    
   62.00      0.7571    
   63.00      0.7445    
   64.00      0.7259    
   65.00      0.7020    
   66.00      0.6736    
   67.00      0.6415    
   68.00      0.6063    
   69.00      0.5682    
   70.00      0.5279    
   71.00      0.4863    
   72.00      0.4443    
   73.00      0.4030    
   74.00      0.3628    
   75.00      0.3243    
   76.00      0.2876    
   77.00      0.2532    
   78.00      0.2213    
   79.00      0.1924    
   80.00      0.1664    
   81.00      0.1435    
   82.00      0.1236    
   83.00      0.1064    
   84.00      0.9197E-01
   85.00      0.8006E-01
   86.00      0.7049E-01
   87.00      0.6302E-01
   88.00      0.5737E-01
   89.00      0.5327E-01
   90.00      0.5050E-01
   91.00      0.4884E-01
   92.00      0.4807E-01
   93.00      0.4797E-01
   94.00      0.4831E-01
   95.00      0.4889E-01
   96.00      0.4960E-01
   97.00      0.5032E-01
   98.00      0.5098E-01
   99.00      0.5147E-01
   100.0      0.5173E-01
   101.0      0.5167E-01
   102.0      0.5129E-01
   103.0      0.5058E-01
   104.0      0.4957E-01
   105.0      0.4828E-01
   106.0      0.4672E-01
   107.0      0.4489E-01
   108.0      0.4283E-01
   109.0      0.4058E-01
   110.0      0.3820E-01
   111.0      0.3573E-01
   112.0      0.3320E-01
   113.0      0.3065E-01
   114.0      0.2810E-01
   115.0      0.2559E-01
   116.0      0.2316E-01
   117.0      0.2083E-01
   118.0      0.1862E-01
   119.0      0.1653E-01
   120.0      0.1459E-01
   121.0      0.1280E-01
   122.0      0.1118E-01
   123.0      0.9740E-02
   124.0      0.8463E-02
   125.0      0.7338E-02
   126.0      0.6356E-02
   127.0      0.5517E-02
   128.0      0.4824E-02
   129.0      0.4274E-02
   130.0      0.3851E-02
   131.0      0.3534E-02
   132.0      0.3299E-02
   133.0      0.3135E-02
   134.0      0.3042E-02
   135.0      0.3017E-02
   136.0      0.3054E-02
   137.0      0.3136E-02
   138.0      0.3241E-02
   139.0      0.3355E-02
   140.0      0.3474E-02
   141.0      0.3598E-02
   142.0      0.3728E-02
   143.0      0.3860E-02
   144.0      0.3982E-02
   145.0      0.4085E-02
   146.0      0.4164E-02
   147.0      0.4221E-02
   148.0      0.4260E-02
   149.0      0.4282E-02
   150.0      0.4286E-02
   151.0      0.4269E-02
   152.0      0.4231E-02
   153.0      0.4175E-02
   154.0      0.4108E-02
   155.0      0.4030E-02
   156.0      0.3943E-02
   157.0      0.3844E-02
   158.0      0.3735E-02
   159.0      0.3620E-02
   160.0      0.3507E-02
   161.0      0.3399E-02
   162.0      0.3296E-02
   163.0      0.3195E-02
   164.0      0.3093E-02
   165.0      0.2992E-02
   166.0      0.2896E-02
   167.0      0.2812E-02
   168.0      0.2742E-02
   169.0      0.2682E-02
   170.0      0.2629E-02
   171.0      0.2578E-02
   172.0      0.2529E-02
   173.0      0.2486E-02
   174.0      0.2453E-02
   175.0      0.2430E-02
   176.0      0.2414E-02
   177.0      0.2405E-02
   178.0      0.2398E-02
   179.0      0.2391E-02
   180.0      0.2389E-02
 END
