# 178 angles,  1 tensor ranks for 0=projectile
@subtitle   "p+O20 1.with BG ;"                                                             
@legend ON
@legend x1 0.2
@legend y1 0.8
@g0 type LOGY
@yaxis ticklabel format power
@xaxis label "Scattering angle (degrees)"
@yaxis label "Cross section (mb/sr)"
@legend string   0 "Partition=  1 Excit=  1 near/far= 1"
#legend string   0 "Lab energy =   43.0000"
@s0 linestyle   1
#  Theta       sigma       iT11        T20         T21         T22         Kyy for projectile
   3.000      0.8011E+05
   4.000      0.2258E+05
   5.000       9019.    
   6.000       4948.    
   7.000       3513.    
   8.000       2923.    
   9.000       2623.    
   10.00       2422.    
   11.00       2251.    
   12.00       2086.    
   13.00       1918.    
   14.00       1748.    
   15.00       1578.    
   16.00       1410.    
   17.00       1248.    
   18.00       1092.    
   19.00       946.3    
   20.00       811.1    
   21.00       687.7    
   22.00       576.6    
   23.00       477.9    
   24.00       391.5    
   25.00       316.9    
   26.00       253.5    
   27.00       200.5    
   28.00       156.9    
   29.00       121.8    
   30.00       94.21    
   31.00       73.02    
   32.00       57.27    
   33.00       46.05    
   34.00       38.50    
   35.00       33.82    
   36.00       31.33    
   37.00       30.42    
   38.00       30.59    
   39.00       31.40    
   40.00       32.53    
   41.00       33.69    
   42.00       34.71    
   43.00       35.43    
   44.00       35.78    
   45.00       35.70    
   46.00       35.21    
   47.00       34.30    
   48.00       33.02    
   49.00       31.43    
   50.00       29.57    
   51.00       27.51    
   52.00       25.33    
   53.00       23.07    
   54.00       20.80    
   55.00       18.55    
   56.00       16.39    
   57.00       14.33    
   58.00       12.41    
   59.00       10.64    
   60.00       9.044    
   61.00       7.619    
   62.00       6.368    
   63.00       5.286    
   64.00       4.366    
   65.00       3.598    
   66.00       2.968    
   67.00       2.461    
   68.00       2.064    
   69.00       1.762    
   70.00       1.538    
   71.00       1.380    
   72.00       1.275    
   73.00       1.210    
   74.00       1.175    
   75.00       1.161    
   76.00       1.160    
   77.00       1.165    
   78.00       1.172    
   79.00       1.177    
   80.00       1.176    
   81.00       1.168    
   82.00       1.152    
   83.00       1.127    
   84.00       1.093    
   85.00       1.051    
   86.00       1.002    
   87.00      0.9474    
   88.00      0.8876    
   89.00      0.8244    
   90.00      0.7590    
   91.00      0.6927    
   92.00      0.6268    
   93.00      0.5621    
   94.00      0.4998    
   95.00      0.4404    
   96.00      0.3847    
   97.00      0.3330    
   98.00      0.2858    
   99.00      0.2431    
   100.0      0.2050    
   101.0      0.1716    
   102.0      0.1426    
   103.0      0.1179    
   104.0      0.9714E-01
   105.0      0.8008E-01
   106.0      0.6635E-01
   107.0      0.5559E-01
   108.0      0.4744E-01
   109.0      0.4154E-01
   110.0      0.3753E-01
   111.0      0.3507E-01
   112.0      0.3387E-01
   113.0      0.3363E-01
   114.0      0.3409E-01
   115.0      0.3503E-01
   116.0      0.3626E-01
   117.0      0.3762E-01
   118.0      0.3895E-01
   119.0      0.4016E-01
   120.0      0.4116E-01
   121.0      0.4189E-01
   122.0      0.4231E-01
   123.0      0.4240E-01
   124.0      0.4215E-01
   125.0      0.4157E-01
   126.0      0.4067E-01
   127.0      0.3947E-01
   128.0      0.3802E-01
   129.0      0.3634E-01
   130.0      0.3448E-01
   131.0      0.3246E-01
   132.0      0.3033E-01
   133.0      0.2812E-01
   134.0      0.2588E-01
   135.0      0.2363E-01
   136.0      0.2139E-01
   137.0      0.1921E-01
   138.0      0.1710E-01
   139.0      0.1508E-01
   140.0      0.1317E-01
   141.0      0.1138E-01
   142.0      0.9719E-02
   143.0      0.8204E-02
   144.0      0.6838E-02
   145.0      0.5623E-02
   146.0      0.4564E-02
   147.0      0.3660E-02
   148.0      0.2911E-02
   149.0      0.2315E-02
   150.0      0.1869E-02
   151.0      0.1568E-02
   152.0      0.1409E-02
   153.0      0.1386E-02
   154.0      0.1493E-02
   155.0      0.1723E-02
   156.0      0.2071E-02
   157.0      0.2527E-02
   158.0      0.3085E-02
   159.0      0.3736E-02
   160.0      0.4470E-02
   161.0      0.5278E-02
   162.0      0.6149E-02
   163.0      0.7072E-02
   164.0      0.8036E-02
   165.0      0.9029E-02
   166.0      0.1004E-01
   167.0      0.1105E-01
   168.0      0.1205E-01
   169.0      0.1303E-01
   170.0      0.1397E-01
   171.0      0.1487E-01
   172.0      0.1570E-01
   173.0      0.1647E-01
   174.0      0.1715E-01
   175.0      0.1774E-01
   176.0      0.1824E-01
   177.0      0.1863E-01
   178.0      0.1892E-01
   179.0      0.1909E-01
   180.0      0.1915E-01
 END
@legend string   1 "Partition=  1 Excit=  2 near/far= 1"
#legend string   0 "Lab energy =   43.0000"
@s1 linestyle   2
#  Theta       sigma       iT11        T20         T21         T22         Kyy for projectile
   3.000       9.107    
   4.000       8.880    
   5.000       8.604    
   6.000       8.289    
   7.000       7.949    
   8.000       7.596    
   9.000       7.243    
   10.00       6.905    
   11.00       6.593    
   12.00       6.316    
   13.00       6.084    
   14.00       5.900    
   15.00       5.766    
   16.00       5.682    
   17.00       5.641    
   18.00       5.638    
   19.00       5.661    
   20.00       5.700    
   21.00       5.742    
   22.00       5.777    
   23.00       5.793    
   24.00       5.782    
   25.00       5.735    
   26.00       5.649    
   27.00       5.521    
   28.00       5.351    
   29.00       5.141    
   30.00       4.896    
   31.00       4.621    
   32.00       4.321    
   33.00       4.004    
   34.00       3.676    
   35.00       3.343    
   36.00       3.014    
   37.00       2.692    
   38.00       2.385    
   39.00       2.096    
   40.00       1.830    
   41.00       1.590    
   42.00       1.377    
   43.00       1.194    
   44.00       1.041    
   45.00      0.9176    
   46.00      0.8220    
   47.00      0.7526    
   48.00      0.7067    
   49.00      0.6811    
   50.00      0.6723    
   51.00      0.6766    
   52.00      0.6905    
   53.00      0.7103    
   54.00      0.7330    
   55.00      0.7558    
   56.00      0.7763    
   57.00      0.7929    
   58.00      0.8041    
   59.00      0.8091    
   60.00      0.8075    
   61.00      0.7990    
   62.00      0.7840    
   63.00      0.7627    
   64.00      0.7356    
   65.00      0.7033    
   66.00      0.6667    
   67.00      0.6264    
   68.00      0.5832    
   69.00      0.5381    
   70.00      0.4919    
   71.00      0.4454    
   72.00      0.3993    
   73.00      0.3546    
   74.00      0.3118    
   75.00      0.2714    
   76.00      0.2341    
   77.00      0.2001    
   78.00      0.1696    
   79.00      0.1428    
   80.00      0.1196    
   81.00      0.9996E-01
   82.00      0.8357E-01
   83.00      0.7023E-01
   84.00      0.5963E-01
   85.00      0.5147E-01
   86.00      0.4542E-01
   87.00      0.4117E-01
   88.00      0.3845E-01
   89.00      0.3697E-01
   90.00      0.3648E-01
   91.00      0.3676E-01
   92.00      0.3758E-01
   93.00      0.3877E-01
   94.00      0.4014E-01
   95.00      0.4154E-01
   96.00      0.4282E-01
   97.00      0.4389E-01
   98.00      0.4464E-01
   99.00      0.4502E-01
   100.0      0.4498E-01
   101.0      0.4450E-01
   102.0      0.4361E-01
   103.0      0.4232E-01
   104.0      0.4069E-01
   105.0      0.3877E-01
   106.0      0.3663E-01
   107.0      0.3433E-01
   108.0      0.3192E-01
   109.0      0.2945E-01
   110.0      0.2698E-01
   111.0      0.2454E-01
   112.0      0.2215E-01
   113.0      0.1983E-01
   114.0      0.1761E-01
   115.0      0.1551E-01
   116.0      0.1354E-01
   117.0      0.1171E-01
   118.0      0.1003E-01
   119.0      0.8524E-02
   120.0      0.7186E-02
   121.0      0.6023E-02
   122.0      0.5035E-02
   123.0      0.4218E-02
   124.0      0.3562E-02
   125.0      0.3054E-02
   126.0      0.2678E-02
   127.0      0.2415E-02
   128.0      0.2245E-02
   129.0      0.2148E-02
   130.0      0.2108E-02
   131.0      0.2109E-02
   132.0      0.2142E-02
   133.0      0.2198E-02
   134.0      0.2274E-02
   135.0      0.2367E-02
   136.0      0.2474E-02
   137.0      0.2592E-02
   138.0      0.2716E-02
   139.0      0.2842E-02
   140.0      0.2961E-02
   141.0      0.3067E-02
   142.0      0.3153E-02
   143.0      0.3214E-02
   144.0      0.3245E-02
   145.0      0.3244E-02
   146.0      0.3211E-02
   147.0      0.3146E-02
   148.0      0.3053E-02
   149.0      0.2934E-02
   150.0      0.2796E-02
   151.0      0.2644E-02
   152.0      0.2484E-02
   153.0      0.2322E-02
   154.0      0.2163E-02
   155.0      0.2011E-02
   156.0      0.1866E-02
   157.0      0.1728E-02
   158.0      0.1596E-02
   159.0      0.1468E-02
   160.0      0.1342E-02
   161.0      0.1217E-02
   162.0      0.1095E-02
   163.0      0.9779E-03
   164.0      0.8695E-03
   165.0      0.7727E-03
   166.0      0.6897E-03
   167.0      0.6216E-03
   168.0      0.5678E-03
   169.0      0.5265E-03
   170.0      0.4954E-03
   171.0      0.4720E-03
   172.0      0.4544E-03
   173.0      0.4413E-03
   174.0      0.4319E-03
   175.0      0.4259E-03
   176.0      0.4228E-03
   177.0      0.4220E-03
   178.0      0.4224E-03
   179.0      0.4232E-03
   180.0      0.4236E-03
 END
