# 178 angles,  1 tensor ranks for 0=projectile
@subtitle   "p+O20 with CH89;"                                                              
@legend ON
@legend x1 0.2
@legend y1 0.8
@g0 type LOGY
@yaxis ticklabel format power
@xaxis label "Scattering angle (degrees)"
@yaxis label "Cross section (mb/sr)"
@legend string   0 "Partition=  1 Excit=  1 near/far= 1"
#legend string   0 "Lab energy =   35.0000"
@s0 linestyle   1
#  Theta       sigma       iT11        T20         T21         T22         Kyy for projectile
   3.000      0.1300E+06
   4.000      0.3716E+05
   5.000      0.1421E+05
   6.000       6905.    
   7.000       4165.    
   8.000       3003.    
   9.000       2448.    
   10.00       2143.    
   11.00       1945.    
   12.00       1792.    
   13.00       1658.    
   14.00       1533.    
   15.00       1411.    
   16.00       1291.    
   17.00       1173.    
   18.00       1058.    
   19.00       947.2    
   20.00       841.3    
   21.00       741.2    
   22.00       647.5    
   23.00       560.8    
   24.00       481.3    
   25.00       409.3    
   26.00       344.6    
   27.00       287.3    
   28.00       237.0    
   29.00       193.4    
   30.00       156.1    
   31.00       124.7    
   32.00       98.59    
   33.00       77.28    
   34.00       60.23    
   35.00       46.92    
   36.00       36.84    
   37.00       29.48    
   38.00       24.40    
   39.00       21.16    
   40.00       19.39    
   41.00       18.73    
   42.00       18.89    
   43.00       19.62    
   44.00       20.68    
   45.00       21.90    
   46.00       23.14    
   47.00       24.28    
   48.00       25.24    
   49.00       25.97    
   50.00       26.42    
   51.00       26.59    
   52.00       26.47    
   53.00       26.08    
   54.00       25.43    
   55.00       24.55    
   56.00       23.47    
   57.00       22.24    
   58.00       20.89    
   59.00       19.44    
   60.00       17.94    
   61.00       16.42    
   62.00       14.90    
   63.00       13.41    
   64.00       11.97    
   65.00       10.61    
   66.00       9.319    
   67.00       8.125    
   68.00       7.031    
   69.00       6.039    
   70.00       5.152    
   71.00       4.369    
   72.00       3.686    
   73.00       3.100    
   74.00       2.603    
   75.00       2.189    
   76.00       1.852    
   77.00       1.582    
   78.00       1.372    
   79.00       1.214    
   80.00       1.101    
   81.00       1.025    
   82.00      0.9785    
   83.00      0.9561    
   84.00      0.9518    
   85.00      0.9606    
   86.00      0.9778    
   87.00      0.9997    
   88.00       1.023    
   89.00       1.045    
   90.00       1.064    
   91.00       1.079    
   92.00       1.087    
   93.00       1.088    
   94.00       1.083    
   95.00       1.070    
   96.00       1.051    
   97.00       1.025    
   98.00      0.9927    
   99.00      0.9553    
   100.0      0.9133    
   101.0      0.8675    
   102.0      0.8186    
   103.0      0.7676    
   104.0      0.7152    
   105.0      0.6621    
   106.0      0.6091    
   107.0      0.5567    
   108.0      0.5056    
   109.0      0.4563    
   110.0      0.4092    
   111.0      0.3646    
   112.0      0.3229    
   113.0      0.2841    
   114.0      0.2486    
   115.0      0.2162    
   116.0      0.1872    
   117.0      0.1614    
   118.0      0.1388    
   119.0      0.1193    
   120.0      0.1026    
   121.0      0.8875E-01
   122.0      0.7742E-01
   123.0      0.6843E-01
   124.0      0.6157E-01
   125.0      0.5659E-01
   126.0      0.5328E-01
   127.0      0.5140E-01
   128.0      0.5073E-01
   129.0      0.5106E-01
   130.0      0.5217E-01
   131.0      0.5388E-01
   132.0      0.5600E-01
   133.0      0.5838E-01
   134.0      0.6088E-01
   135.0      0.6336E-01
   136.0      0.6572E-01
   137.0      0.6788E-01
   138.0      0.6975E-01
   139.0      0.7130E-01
   140.0      0.7248E-01
   141.0      0.7327E-01
   142.0      0.7367E-01
   143.0      0.7369E-01
   144.0      0.7336E-01
   145.0      0.7270E-01
   146.0      0.7175E-01
   147.0      0.7057E-01
   148.0      0.6921E-01
   149.0      0.6772E-01
   150.0      0.6618E-01
   151.0      0.6463E-01
   152.0      0.6314E-01
   153.0      0.6176E-01
   154.0      0.6055E-01
   155.0      0.5955E-01
   156.0      0.5880E-01
   157.0      0.5834E-01
   158.0      0.5820E-01
   159.0      0.5839E-01
   160.0      0.5891E-01
   161.0      0.5977E-01
   162.0      0.6096E-01
   163.0      0.6246E-01
   164.0      0.6425E-01
   165.0      0.6628E-01
   166.0      0.6853E-01
   167.0      0.7095E-01
   168.0      0.7349E-01
   169.0      0.7610E-01
   170.0      0.7872E-01
   171.0      0.8129E-01
   172.0      0.8377E-01
   173.0      0.8610E-01
   174.0      0.8824E-01
   175.0      0.9013E-01
   176.0      0.9173E-01
   177.0      0.9301E-01
   178.0      0.9395E-01
   179.0      0.9452E-01
   180.0      0.9471E-01
 END
