# 178 angles,  1 tensor ranks for 0=projectile
@subtitle   "20O + d Ex 7.639 3-;"                                                          
@legend ON
@legend x1 0.2
@legend y1 0.8
@g0 type LOGY
@yaxis ticklabel format power
@xaxis label "Scattering angle (degrees)"
@yaxis label "Cross section (mb/sr)"
@legend string   0 "Partition=  1 Excit=  1 near/far= 1"
#legend string   0 "Lab energy =   70.0000"
@s0 linestyle   1
#  Theta       sigma       iT11        T20         T21         T22         Kyy for projectile
   3.000      0.2745E+05
   4.000      0.1164E+05
   5.000       8259.    
   6.000       6771.    
   7.000       5565.    
   8.000       4418.    
   9.000       3348.    
   10.00       2408.    
   11.00       1630.    
   12.00       1027.    
   13.00       591.3    
   14.00       302.7    
   15.00       133.2    
   16.00       52.38    
   17.00       31.56    
   18.00       46.03    
   19.00       76.47    
   20.00       109.2    
   21.00       135.8    
   22.00       152.2    
   23.00       157.5    
   24.00       152.9    
   25.00       140.8    
   26.00       124.1    
   27.00       105.4    
   28.00       86.78    
   29.00       69.87    
   30.00       55.55    
   31.00       44.18    
   32.00       35.69    
   33.00       29.73    
   34.00       25.78    
   35.00       23.29    
   36.00       21.74    
   37.00       20.69    
   38.00       19.81    
   39.00       18.88    
   40.00       17.79    
   41.00       16.49    
   42.00       15.00    
   43.00       13.38    
   44.00       11.70    
   45.00       10.05    
   46.00       8.480    
   47.00       7.053    
   48.00       5.800    
   49.00       4.738    
   50.00       3.869    
   51.00       3.181    
   52.00       2.654    
   53.00       2.262    
   54.00       1.977    
   55.00       1.773    
   56.00       1.626    
   57.00       1.514    
   58.00       1.422    
   59.00       1.337    
   60.00       1.253    
   61.00       1.165    
   62.00       1.071    
   63.00      0.9729    
   64.00      0.8722    
   65.00      0.7718    
   66.00      0.6745    
   67.00      0.5830    
   68.00      0.4994    
   69.00      0.4252    
   70.00      0.3610    
   71.00      0.3070    
   72.00      0.2628    
   73.00      0.2273    
   74.00      0.1994    
   75.00      0.1777    
   76.00      0.1608    
   77.00      0.1475    
   78.00      0.1366    
   79.00      0.1271    
   80.00      0.1183    
   81.00      0.1097    
   82.00      0.1011    
   83.00      0.9231E-01
   84.00      0.8335E-01
   85.00      0.7435E-01
   86.00      0.6548E-01
   87.00      0.5694E-01
   88.00      0.4891E-01
   89.00      0.4155E-01
   90.00      0.3499E-01
   91.00      0.2929E-01
   92.00      0.2448E-01
   93.00      0.2053E-01
   94.00      0.1738E-01
   95.00      0.1494E-01
   96.00      0.1312E-01
   97.00      0.1178E-01
   98.00      0.1082E-01
   99.00      0.1012E-01
   100.0      0.9597E-02
   101.0      0.9168E-02
   102.0      0.8771E-02
   103.0      0.8364E-02
   104.0      0.7920E-02
   105.0      0.7427E-02
   106.0      0.6884E-02
   107.0      0.6299E-02
   108.0      0.5686E-02
   109.0      0.5061E-02
   110.0      0.4443E-02
   111.0      0.3847E-02
   112.0      0.3288E-02
   113.0      0.2777E-02
   114.0      0.2322E-02
   115.0      0.1926E-02
   116.0      0.1590E-02
   117.0      0.1313E-02
   118.0      0.1089E-02
   119.0      0.9137E-03
   120.0      0.7797E-03
   121.0      0.6799E-03
   122.0      0.6075E-03
   123.0      0.5558E-03
   124.0      0.5190E-03
   125.0      0.4921E-03
   126.0      0.4712E-03
   127.0      0.4530E-03
   128.0      0.4353E-03
   129.0      0.4168E-03
   130.0      0.3966E-03
   131.0      0.3744E-03
   132.0      0.3503E-03
   133.0      0.3246E-03
   134.0      0.2980E-03
   135.0      0.2710E-03
   136.0      0.2442E-03
   137.0      0.2183E-03
   138.0      0.1936E-03
   139.0      0.1708E-03
   140.0      0.1499E-03
   141.0      0.1314E-03
   142.0      0.1154E-03
   143.0      0.1018E-03
   144.0      0.9060E-04
   145.0      0.8182E-04
   146.0      0.7529E-04
   147.0      0.7085E-04
   148.0      0.6832E-04
   149.0      0.6750E-04
   150.0      0.6820E-04
   151.0      0.7021E-04
   152.0      0.7333E-04
   153.0      0.7736E-04
   154.0      0.8207E-04
   155.0      0.8725E-04
   156.0      0.9269E-04
   157.0      0.9814E-04
   158.0      0.1034E-03
   159.0      0.1081E-03
   160.0      0.1122E-03
   161.0      0.1153E-03
   162.0      0.1173E-03
   163.0      0.1180E-03
   164.0      0.1172E-03
   165.0      0.1149E-03
   166.0      0.1111E-03
   167.0      0.1057E-03
   168.0      0.9898E-04
   169.0      0.9102E-04
   170.0      0.8210E-04
   171.0      0.7250E-04
   172.0      0.6255E-04
   173.0      0.5262E-04
   174.0      0.4307E-04
   175.0      0.3427E-04
   176.0      0.2654E-04
   177.0      0.2019E-04
   178.0      0.1547E-04
   179.0      0.1257E-04
   180.0      0.1158E-04
 END
@legend string   1 "Partition=  1 Excit=  2 near/far= 1"
#legend string   0 "Lab energy =   70.0000"
@s1 linestyle   2
#  Theta       sigma       iT11        T20         T21         T22         Kyy for projectile
   3.000       12.99    
   4.000       15.61    
   5.000       18.46    
   6.000       21.23    
   7.000       23.71    
   8.000       25.85    
   9.000       27.70    
   10.00       29.45    
   11.00       31.27    
   12.00       33.29    
   13.00       35.53    
   14.00       37.88    
   15.00       40.13    
   16.00       42.00    
   17.00       43.19    
   18.00       43.47    
   19.00       42.68    
   20.00       40.79    
   21.00       37.91    
   22.00       34.25    
   23.00       30.11    
   24.00       25.81    
   25.00       21.65    
   26.00       17.91    
   27.00       14.79    
   28.00       12.40    
   29.00       10.78    
   30.00       9.863    
   31.00       9.540    
   32.00       9.654    
   33.00       10.03    
   34.00       10.51    
   35.00       10.94    
   36.00       11.23    
   37.00       11.30    
   38.00       11.12    
   39.00       10.70    
   40.00       10.08    
   41.00       9.310    
   42.00       8.449    
   43.00       7.558    
   44.00       6.692    
   45.00       5.896    
   46.00       5.196    
   47.00       4.608    
   48.00       4.133    
   49.00       3.763    
   50.00       3.480    
   51.00       3.266    
   52.00       3.097    
   53.00       2.954    
   54.00       2.819    
   55.00       2.679    
   56.00       2.526    
   57.00       2.356    
   58.00       2.171    
   59.00       1.972    
   60.00       1.766    
   61.00       1.560    
   62.00       1.359    
   63.00       1.170    
   64.00      0.9966    
   65.00      0.8432    
   66.00      0.7110    
   67.00      0.6003    
   68.00      0.5101    
   69.00      0.4385    
   70.00      0.3828    
   71.00      0.3400    
   72.00      0.3072    
   73.00      0.2817    
   74.00      0.2611    
   75.00      0.2433    
   76.00      0.2269    
   77.00      0.2109    
   78.00      0.1947    
   79.00      0.1782    
   80.00      0.1615    
   81.00      0.1447    
   82.00      0.1284    
   83.00      0.1127    
   84.00      0.9809E-01
   85.00      0.8483E-01
   86.00      0.7311E-01
   87.00      0.6301E-01
   88.00      0.5449E-01
   89.00      0.4746E-01
   90.00      0.4176E-01
   91.00      0.3722E-01
   92.00      0.3363E-01
   93.00      0.3078E-01
   94.00      0.2845E-01
   95.00      0.2648E-01
   96.00      0.2472E-01
   97.00      0.2308E-01
   98.00      0.2148E-01
   99.00      0.1988E-01
   100.0      0.1826E-01
   101.0      0.1662E-01
   102.0      0.1500E-01
   103.0      0.1342E-01
   104.0      0.1192E-01
   105.0      0.1051E-01
   106.0      0.9234E-02
   107.0      0.8094E-02
   108.0      0.7105E-02
   109.0      0.6268E-02
   110.0      0.5578E-02
   111.0      0.5022E-02
   112.0      0.4584E-02
   113.0      0.4246E-02
   114.0      0.3991E-02
   115.0      0.3799E-02
   116.0      0.3649E-02
   117.0      0.3522E-02
   118.0      0.3402E-02
   119.0      0.3278E-02
   120.0      0.3145E-02
   121.0      0.3000E-02
   122.0      0.2840E-02
   123.0      0.2667E-02
   124.0      0.2481E-02
   125.0      0.2287E-02
   126.0      0.2089E-02
   127.0      0.1891E-02
   128.0      0.1696E-02
   129.0      0.1508E-02
   130.0      0.1330E-02
   131.0      0.1168E-02
   132.0      0.1023E-02
   133.0      0.8972E-03
   134.0      0.7901E-03
   135.0      0.7007E-03
   136.0      0.6277E-03
   137.0      0.5695E-03
   138.0      0.5239E-03
   139.0      0.4882E-03
   140.0      0.4602E-03
   141.0      0.4388E-03
   142.0      0.4236E-03
   143.0      0.4140E-03
   144.0      0.4084E-03
   145.0      0.4038E-03
   146.0      0.3974E-03
   147.0      0.3876E-03
   148.0      0.3748E-03
   149.0      0.3605E-03
   150.0      0.3462E-03
   151.0      0.3324E-03
   152.0      0.3185E-03
   153.0      0.3037E-03
   154.0      0.2877E-03
   155.0      0.2707E-03
   156.0      0.2534E-03
   157.0      0.2364E-03
   158.0      0.2203E-03
   159.0      0.2055E-03
   160.0      0.1922E-03
   161.0      0.1807E-03
   162.0      0.1710E-03
   163.0      0.1626E-03
   164.0      0.1553E-03
   165.0      0.1488E-03
   166.0      0.1431E-03
   167.0      0.1384E-03
   168.0      0.1348E-03
   169.0      0.1323E-03
   170.0      0.1307E-03
   171.0      0.1301E-03
   172.0      0.1306E-03
   173.0      0.1321E-03
   174.0      0.1340E-03
   175.0      0.1355E-03
   176.0      0.1357E-03
   177.0      0.1343E-03
   178.0      0.1320E-03
   179.0      0.1297E-03
   180.0      0.1288E-03
 END
