# 178 angles,  1 tensor ranks for 0=projectile
@subtitle   "20O + d 3-?;"                                                                  
@legend ON
@legend x1 0.2
@legend y1 0.8
@g0 type LOGY
@yaxis ticklabel format power
@xaxis label "Scattering angle (degrees)"
@yaxis label "Cross section (mb/sr)"
@legend string   0 "Partition=  1 Excit=  1 near/far= 1"
#legend string   0 "Lab energy =   70.0000"
@s0 linestyle   1
#  Theta       sigma       iT11        T20         T21         T22         Kyy for projectile
   3.000      0.2747E+05
   4.000      0.1165E+05
   5.000       8275.    
   6.000       6786.    
   7.000       5579.    
   8.000       4431.    
   9.000       3360.    
   10.00       2418.    
   11.00       1638.    
   12.00       1034.    
   13.00       596.5    
   14.00       306.3    
   15.00       135.2    
   16.00       53.10    
   17.00       31.19    
   18.00       44.84    
   19.00       74.72    
   20.00       107.2    
   21.00       133.7    
   22.00       150.1    
   23.00       155.6    
   24.00       151.3    
   25.00       139.5    
   26.00       123.1    
   27.00       104.7    
   28.00       86.34    
   29.00       69.63    
   30.00       55.45    
   31.00       44.19    
   32.00       35.76    
   33.00       29.82    
   34.00       25.87    
   35.00       23.38    
   36.00       21.81    
   37.00       20.75    
   38.00       19.85    
   39.00       18.92    
   40.00       17.82    
   41.00       16.52    
   42.00       15.03    
   43.00       13.41    
   44.00       11.74    
   45.00       10.09    
   46.00       8.517    
   47.00       7.085    
   48.00       5.825    
   49.00       4.753    
   50.00       3.872    
   51.00       3.171    
   52.00       2.631    
   53.00       2.227    
   54.00       1.932    
   55.00       1.719    
   56.00       1.566    
   57.00       1.451    
   58.00       1.358    
   59.00       1.274    
   60.00       1.193    
   61.00       1.110    
   62.00       1.022    
   63.00      0.9295    
   64.00      0.8351    
   65.00      0.7407    
   66.00      0.6489    
   67.00      0.5623    
   68.00      0.4828    
   69.00      0.4119    
   70.00      0.3503    
   71.00      0.2983    
   72.00      0.2554    
   73.00      0.2208    
   74.00      0.1935    
   75.00      0.1721    
   76.00      0.1555    
   77.00      0.1424    
   78.00      0.1317    
   79.00      0.1225    
   80.00      0.1141    
   81.00      0.1060    
   82.00      0.9783E-01
   83.00      0.8956E-01
   84.00      0.8115E-01
   85.00      0.7268E-01
   86.00      0.6431E-01
   87.00      0.5621E-01
   88.00      0.4855E-01
   89.00      0.4149E-01
   90.00      0.3514E-01
   91.00      0.2958E-01
   92.00      0.2483E-01
   93.00      0.2089E-01
   94.00      0.1771E-01
   95.00      0.1520E-01
   96.00      0.1329E-01
   97.00      0.1186E-01
   98.00      0.1082E-01
   99.00      0.1005E-01
   100.0      0.9473E-02
   101.0      0.9011E-02
   102.0      0.8603E-02
   103.0      0.8204E-02
   104.0      0.7786E-02
   105.0      0.7331E-02
   106.0      0.6835E-02
   107.0      0.6301E-02
   108.0      0.5740E-02
   109.0      0.5163E-02
   110.0      0.4586E-02
   111.0      0.4023E-02
   112.0      0.3488E-02
   113.0      0.2991E-02
   114.0      0.2541E-02
   115.0      0.2142E-02
   116.0      0.1797E-02
   117.0      0.1505E-02
   118.0      0.1264E-02
   119.0      0.1069E-02
   120.0      0.9150E-03
   121.0      0.7966E-03
   122.0      0.7073E-03
   123.0      0.6412E-03
   124.0      0.5927E-03
   125.0      0.5569E-03
   126.0      0.5295E-03
   127.0      0.5071E-03
   128.0      0.4871E-03
   129.0      0.4675E-03
   130.0      0.4470E-03
   131.0      0.4248E-03
   132.0      0.4006E-03
   133.0      0.3746E-03
   134.0      0.3469E-03
   135.0      0.3182E-03
   136.0      0.2889E-03
   137.0      0.2598E-03
   138.0      0.2314E-03
   139.0      0.2044E-03
   140.0      0.1792E-03
   141.0      0.1562E-03
   142.0      0.1359E-03
   143.0      0.1183E-03
   144.0      0.1036E-03
   145.0      0.9186E-04
   146.0      0.8300E-04
   147.0      0.7687E-04
   148.0      0.7327E-04
   149.0      0.7195E-04
   150.0      0.7262E-04
   151.0      0.7496E-04
   152.0      0.7864E-04
   153.0      0.8331E-04
   154.0      0.8862E-04
   155.0      0.9424E-04
   156.0      0.9986E-04
   157.0      0.1052E-03
   158.0      0.1099E-03
   159.0      0.1137E-03
   160.0      0.1166E-03
   161.0      0.1182E-03
   162.0      0.1184E-03
   163.0      0.1173E-03
   164.0      0.1147E-03
   165.0      0.1106E-03
   166.0      0.1052E-03
   167.0      0.9855E-04
   168.0      0.9084E-04
   169.0      0.8227E-04
   170.0      0.7309E-04
   171.0      0.6359E-04
   172.0      0.5403E-04
   173.0      0.4473E-04
   174.0      0.3597E-04
   175.0      0.2802E-04
   176.0      0.2114E-04
   177.0      0.1555E-04
   178.0      0.1143E-04
   179.0      0.8898E-05
   180.0      0.8046E-05
 END
@legend string   1 "Partition=  1 Excit=  2 near/far= 1"
#legend string   0 "Lab energy =   70.0000"
@s1 linestyle   2
#  Theta       sigma       iT11        T20         T21         T22         Kyy for projectile
   3.000       12.38    
   4.000       15.53    
   5.000       18.79    
   6.000       21.81    
   7.000       24.42    
   8.000       26.62    
   9.000       28.51    
   10.00       30.33    
   11.00       32.26    
   12.00       34.47    
   13.00       36.94    
   14.00       39.55    
   15.00       42.05    
   16.00       44.12    
   17.00       45.44    
   18.00       45.74    
   19.00       44.86    
   20.00       42.78    
   21.00       39.64    
   22.00       35.67    
   23.00       31.21    
   24.00       26.63    
   25.00       22.25    
   26.00       18.37    
   27.00       15.20    
   28.00       12.84    
   29.00       11.31    
   30.00       10.51    
   31.00       10.32    
   32.00       10.55    
   33.00       11.01    
   34.00       11.53    
   35.00       11.97    
   36.00       12.21    
   37.00       12.19    
   38.00       11.91    
   39.00       11.37    
   40.00       10.62    
   41.00       9.730    
   42.00       8.763    
   43.00       7.787    
   44.00       6.857    
   45.00       6.016    
   46.00       5.290    
   47.00       4.689    
   48.00       4.211    
   49.00       3.842    
   50.00       3.562    
   51.00       3.348    
   52.00       3.176    
   53.00       3.024    
   54.00       2.876    
   55.00       2.720    
   56.00       2.549    
   57.00       2.361    
   58.00       2.157    
   59.00       1.943    
   60.00       1.724    
   61.00       1.509    
   62.00       1.303    
   63.00       1.112    
   64.00      0.9410    
   65.00      0.7917    
   66.00      0.6653    
   67.00      0.5613    
   68.00      0.4779    
   69.00      0.4127    
   70.00      0.3627    
   71.00      0.3245    
   72.00      0.2951    
   73.00      0.2719    
   74.00      0.2525    
   75.00      0.2351    
   76.00      0.2186    
   77.00      0.2021    
   78.00      0.1853    
   79.00      0.1682    
   80.00      0.1511    
   81.00      0.1342    
   82.00      0.1179    
   83.00      0.1027    
   84.00      0.8870E-01
   85.00      0.7626E-01
   86.00      0.6546E-01
   87.00      0.5630E-01
   88.00      0.4870E-01
   89.00      0.4253E-01
   90.00      0.3759E-01
   91.00      0.3367E-01
   92.00      0.3056E-01
   93.00      0.2805E-01
   94.00      0.2594E-01
   95.00      0.2410E-01
   96.00      0.2241E-01
   97.00      0.2079E-01
   98.00      0.1919E-01
   99.00      0.1758E-01
   100.0      0.1598E-01
   101.0      0.1440E-01
   102.0      0.1285E-01
   103.0      0.1138E-01
   104.0      0.1001E-01
   105.0      0.8755E-02
   106.0      0.7641E-02
   107.0      0.6674E-02
   108.0      0.5855E-02
   109.0      0.5178E-02
   110.0      0.4633E-02
   111.0      0.4204E-02
   112.0      0.3871E-02
   113.0      0.3616E-02
   114.0      0.3419E-02
   115.0      0.3264E-02
   116.0      0.3133E-02
   117.0      0.3014E-02
   118.0      0.2894E-02
   119.0      0.2769E-02
   120.0      0.2633E-02
   121.0      0.2485E-02
   122.0      0.2325E-02
   123.0      0.2156E-02
   124.0      0.1979E-02
   125.0      0.1800E-02
   126.0      0.1622E-02
   127.0      0.1449E-02
   128.0      0.1284E-02
   129.0      0.1130E-02
   130.0      0.9888E-03
   131.0      0.8627E-03
   132.0      0.7525E-03
   133.0      0.6582E-03
   134.0      0.5793E-03
   135.0      0.5146E-03
   136.0      0.4629E-03
   137.0      0.4225E-03
   138.0      0.3915E-03
   139.0      0.3681E-03
   140.0      0.3504E-03
   141.0      0.3369E-03
   142.0      0.3265E-03
   143.0      0.3182E-03
   144.0      0.3108E-03
   145.0      0.3035E-03
   146.0      0.2954E-03
   147.0      0.2860E-03
   148.0      0.2752E-03
   149.0      0.2633E-03
   150.0      0.2506E-03
   151.0      0.2374E-03
   152.0      0.2237E-03
   153.0      0.2097E-03
   154.0      0.1958E-03
   155.0      0.1821E-03
   156.0      0.1690E-03
   157.0      0.1567E-03
   158.0      0.1454E-03
   159.0      0.1351E-03
   160.0      0.1259E-03
   161.0      0.1181E-03
   162.0      0.1115E-03
   163.0      0.1061E-03
   164.0      0.1018E-03
   165.0      0.9840E-04
   166.0      0.9579E-04
   167.0      0.9395E-04
   168.0      0.9279E-04
   169.0      0.9224E-04
   170.0      0.9218E-04
   171.0      0.9253E-04
   172.0      0.9320E-04
   173.0      0.9412E-04
   174.0      0.9515E-04
   175.0      0.9613E-04
   176.0      0.9689E-04
   177.0      0.9736E-04
   178.0      0.9756E-04
   179.0      0.9760E-04
   180.0      0.9760E-04
 END
