# 178 angles,  1 tensor ranks for 0=projectile
@subtitle   "p+O20 1.with BG ;"                                                             
@legend ON
@legend x1 0.2
@legend y1 0.8
@g0 type LOGY
@yaxis ticklabel format power
@xaxis label "Scattering angle (degrees)"
@yaxis label "Cross section (mb/sr)"
@legend string   0 "Partition=  1 Excit=  1 near/far= 1"
#legend string   0 "Lab energy =   35.0000"
@s0 linestyle   1
#  Theta       sigma       iT11        T20         T21         T22         Kyy for projectile
   3.000      0.1284E+06
   4.000      0.3660E+05
   5.000      0.1407E+05
   6.000       6960.    
   7.000       4315.    
   8.000       3197.    
   9.000       2658.    
   10.00       2352.    
   11.00       2143.    
   12.00       1974.    
   13.00       1821.    
   14.00       1674.    
   15.00       1530.    
   16.00       1389.    
   17.00       1250.    
   18.00       1117.    
   19.00       989.0    
   20.00       868.2    
   21.00       755.2    
   22.00       650.8    
   23.00       555.4    
   24.00       469.3    
   25.00       392.4    
   26.00       324.7    
   27.00       265.7    
   28.00       215.1    
   29.00       172.3    
   30.00       136.6    
   31.00       107.4    
   32.00       84.02    
   33.00       65.74    
   34.00       51.88    
   35.00       41.76    
   36.00       34.76    
   37.00       30.30    
   38.00       27.85    
   39.00       26.94    
   40.00       27.14    
   41.00       28.09    
   42.00       29.50    
   43.00       31.11    
   44.00       32.72    
   45.00       34.18    
   46.00       35.38    
   47.00       36.24    
   48.00       36.72    
   49.00       36.79    
   50.00       36.47    
   51.00       35.76    
   52.00       34.71    
   53.00       33.36    
   54.00       31.75    
   55.00       29.93    
   56.00       27.97    
   57.00       25.90    
   58.00       23.77    
   59.00       21.64    
   60.00       19.53    
   61.00       17.48    
   62.00       15.52    
   63.00       13.67    
   64.00       11.94    
   65.00       10.36    
   66.00       8.925    
   67.00       7.638    
   68.00       6.500    
   69.00       5.507    
   70.00       4.652    
   71.00       3.928    
   72.00       3.324    
   73.00       2.830    
   74.00       2.434    
   75.00       2.124    
   76.00       1.888    
   77.00       1.716    
   78.00       1.595    
   79.00       1.517    
   80.00       1.472    
   81.00       1.452    
   82.00       1.449    
   83.00       1.458    
   84.00       1.472    
   85.00       1.487    
   86.00       1.501    
   87.00       1.509    
   88.00       1.510    
   89.00       1.503    
   90.00       1.488    
   91.00       1.463    
   92.00       1.429    
   93.00       1.386    
   94.00       1.336    
   95.00       1.279    
   96.00       1.216    
   97.00       1.149    
   98.00       1.078    
   99.00       1.004    
   100.0      0.9296    
   101.0      0.8548    
   102.0      0.7808    
   103.0      0.7085    
   104.0      0.6386    
   105.0      0.5717    
   106.0      0.5084    
   107.0      0.4491    
   108.0      0.3940    
   109.0      0.3434    
   110.0      0.2974    
   111.0      0.2560    
   112.0      0.2192    
   113.0      0.1868    
   114.0      0.1587    
   115.0      0.1346    
   116.0      0.1143    
   117.0      0.9758E-01
   118.0      0.8404E-01
   119.0      0.7342E-01
   120.0      0.6539E-01
   121.0      0.5964E-01
   122.0      0.5588E-01
   123.0      0.5380E-01
   124.0      0.5312E-01
   125.0      0.5357E-01
   126.0      0.5491E-01
   127.0      0.5690E-01
   128.0      0.5934E-01
   129.0      0.6204E-01
   130.0      0.6483E-01
   131.0      0.6757E-01
   132.0      0.7014E-01
   133.0      0.7244E-01
   134.0      0.7438E-01
   135.0      0.7589E-01
   136.0      0.7694E-01
   137.0      0.7748E-01
   138.0      0.7750E-01
   139.0      0.7700E-01
   140.0      0.7599E-01
   141.0      0.7448E-01
   142.0      0.7252E-01
   143.0      0.7012E-01
   144.0      0.6734E-01
   145.0      0.6423E-01
   146.0      0.6083E-01
   147.0      0.5722E-01
   148.0      0.5344E-01
   149.0      0.4955E-01
   150.0      0.4561E-01
   151.0      0.4169E-01
   152.0      0.3782E-01
   153.0      0.3407E-01
   154.0      0.3048E-01
   155.0      0.2709E-01
   156.0      0.2394E-01
   157.0      0.2106E-01
   158.0      0.1846E-01
   159.0      0.1617E-01
   160.0      0.1421E-01
   161.0      0.1256E-01
   162.0      0.1124E-01
   163.0      0.1022E-01
   164.0      0.9505E-02
   165.0      0.9066E-02
   166.0      0.8881E-02
   167.0      0.8921E-02
   168.0      0.9155E-02
   169.0      0.9549E-02
   170.0      0.1007E-01
   171.0      0.1067E-01
   172.0      0.1133E-01
   173.0      0.1201E-01
   174.0      0.1267E-01
   175.0      0.1329E-01
   176.0      0.1383E-01
   177.0      0.1428E-01
   178.0      0.1461E-01
   179.0      0.1482E-01
   180.0      0.1489E-01
 END
@legend string   1 "Partition=  1 Excit=  2 near/far= 1"
#legend string   0 "Lab energy =   35.0000"
@s1 linestyle   2
#  Theta       sigma       iT11        T20         T21         T22         Kyy for projectile
   3.000       9.860    
   4.000       9.660    
   5.000       9.413    
   6.000       9.126    
   7.000       8.809    
   8.000       8.469    
   9.000       8.119    
   10.00       7.767    
   11.00       7.425    
   12.00       7.100    
   13.00       6.803    
   14.00       6.538    
   15.00       6.312    
   16.00       6.127    
   17.00       5.982    
   18.00       5.876    
   19.00       5.804    
   20.00       5.761    
   21.00       5.738    
   22.00       5.729    
   23.00       5.723    
   24.00       5.713    
   25.00       5.692    
   26.00       5.653    
   27.00       5.590    
   28.00       5.502    
   29.00       5.385    
   30.00       5.240    
   31.00       5.066    
   32.00       4.867    
   33.00       4.644    
   34.00       4.401    
   35.00       4.142    
   36.00       3.871    
   37.00       3.593    
   38.00       3.312    
   39.00       3.032    
   40.00       2.757    
   41.00       2.492    
   42.00       2.240    
   43.00       2.005    
   44.00       1.789    
   45.00       1.595    
   46.00       1.424    
   47.00       1.277    
   48.00       1.154    
   49.00       1.056    
   50.00      0.9792    
   51.00      0.9240    
   52.00      0.8876    
   53.00      0.8676    
   54.00      0.8614    
   55.00      0.8662    
   56.00      0.8793    
   57.00      0.8982    
   58.00      0.9203    
   59.00      0.9436    
   60.00      0.9662    
   61.00      0.9866    
   62.00       1.004    
   63.00       1.016    
   64.00       1.023    
   65.00       1.024    
   66.00       1.019    
   67.00       1.008    
   68.00      0.9902    
   69.00      0.9665    
   70.00      0.9371    
   71.00      0.9023    
   72.00      0.8628    
   73.00      0.8193    
   74.00      0.7726    
   75.00      0.7235    
   76.00      0.6728    
   77.00      0.6213    
   78.00      0.5700    
   79.00      0.5194    
   80.00      0.4703    
   81.00      0.4233    
   82.00      0.3788    
   83.00      0.3371    
   84.00      0.2985    
   85.00      0.2633    
   86.00      0.2313    
   87.00      0.2028    
   88.00      0.1775    
   89.00      0.1555    
   90.00      0.1366    
   91.00      0.1206    
   92.00      0.1073    
   93.00      0.9656E-01
   94.00      0.8809E-01
   95.00      0.8167E-01
   96.00      0.7704E-01
   97.00      0.7395E-01
   98.00      0.7213E-01
   99.00      0.7135E-01
   100.0      0.7135E-01
   101.0      0.7192E-01
   102.0      0.7285E-01
   103.0      0.7396E-01
   104.0      0.7510E-01
   105.0      0.7614E-01
   106.0      0.7699E-01
   107.0      0.7757E-01
   108.0      0.7784E-01
   109.0      0.7775E-01
   110.0      0.7730E-01
   111.0      0.7647E-01
   112.0      0.7527E-01
   113.0      0.7372E-01
   114.0      0.7182E-01
   115.0      0.6959E-01
   116.0      0.6707E-01
   117.0      0.6430E-01
   118.0      0.6130E-01
   119.0      0.5812E-01
   120.0      0.5481E-01
   121.0      0.5141E-01
   122.0      0.4798E-01
   123.0      0.4455E-01
   124.0      0.4117E-01
   125.0      0.3787E-01
   126.0      0.3470E-01
   127.0      0.3167E-01
   128.0      0.2880E-01
   129.0      0.2611E-01
   130.0      0.2360E-01
   131.0      0.2127E-01
   132.0      0.1913E-01
   133.0      0.1718E-01
   134.0      0.1540E-01
   135.0      0.1379E-01
   136.0      0.1236E-01
   137.0      0.1109E-01
   138.0      0.9979E-02
   139.0      0.9029E-02
   140.0      0.8230E-02
   141.0      0.7575E-02
   142.0      0.7053E-02
   143.0      0.6651E-02
   144.0      0.6357E-02
   145.0      0.6157E-02
   146.0      0.6037E-02
   147.0      0.5985E-02
   148.0      0.5991E-02
   149.0      0.6046E-02
   150.0      0.6142E-02
   151.0      0.6275E-02
   152.0      0.6439E-02
   153.0      0.6631E-02
   154.0      0.6850E-02
   155.0      0.7091E-02
   156.0      0.7355E-02
   157.0      0.7639E-02
   158.0      0.7941E-02
   159.0      0.8258E-02
   160.0      0.8585E-02
   161.0      0.8917E-02
   162.0      0.9249E-02
   163.0      0.9576E-02
   164.0      0.9893E-02
   165.0      0.1020E-01
   166.0      0.1049E-01
   167.0      0.1077E-01
   168.0      0.1103E-01
   169.0      0.1129E-01
   170.0      0.1154E-01
   171.0      0.1179E-01
   172.0      0.1203E-01
   173.0      0.1225E-01
   174.0      0.1246E-01
   175.0      0.1265E-01
   176.0      0.1281E-01
   177.0      0.1294E-01
   178.0      0.1304E-01
   179.0      0.1310E-01
   180.0      0.1312E-01
 END
