# 178 angles,  1 tensor ranks for 0=projectile
@subtitle   "20O + d example 4+ over gs band;"                                              
@legend ON
@legend x1 0.2
@legend y1 0.8
@g0 type LOGY
@yaxis ticklabel format power
@xaxis label "Scattering angle (degrees)"
@yaxis label "Cross section (mb/sr)"
@legend string   0 "Partition=  1 Excit=  1 near/far= 1"
#legend string   0 "Lab energy =   70.0000"
@s0 linestyle   1
#  Theta       sigma       iT11        T20         T21         T22         Kyy for projectile
   3.000      0.2715E+05
   4.000      0.1161E+05
   5.000       8322.    
   6.000       6849.    
   7.000       5629.    
   8.000       4457.    
   9.000       3362.    
   10.00       2401.    
   11.00       1611.    
   12.00       1003.    
   13.00       569.4    
   14.00       287.9    
   15.00       128.5    
   16.00       59.00    
   17.00       48.93    
   18.00       72.34    
   19.00       109.1    
   20.00       145.4    
   21.00       172.8    
   22.00       187.7    
   23.00       189.9    
   24.00       181.2    
   25.00       164.7    
   26.00       143.7    
   27.00       121.3    
   28.00       99.79    
   29.00       80.83    
   30.00       65.27    
   31.00       53.32    
   32.00       44.72    
   33.00       38.92    
   34.00       35.23    
   35.00       32.95    
   36.00       31.45    
   37.00       30.25    
   38.00       29.00    
   39.00       27.51    
   40.00       25.70    
   41.00       23.60    
   42.00       21.29    
   43.00       18.86    
   44.00       16.45    
   45.00       14.14    
   46.00       12.02    
   47.00       10.14    
   48.00       8.538    
   49.00       7.200    
   50.00       6.114    
   51.00       5.249    
   52.00       4.567    
   53.00       4.031    
   54.00       3.603    
   55.00       3.252    
   56.00       2.953    
   57.00       2.685    
   58.00       2.438    
   59.00       2.203    
   60.00       1.977    
   61.00       1.760    
   62.00       1.555    
   63.00       1.362    
   64.00       1.185    
   65.00       1.026    
   66.00      0.8846    
   67.00      0.7620    
   68.00      0.6574    
   69.00      0.5694    
   70.00      0.4963    
   71.00      0.4359    
   72.00      0.3861    
   73.00      0.3448    
   74.00      0.3100    
   75.00      0.2802    
   76.00      0.2541    
   77.00      0.2307    
   78.00      0.2092    
   79.00      0.1892    
   80.00      0.1706    
   81.00      0.1531    
   82.00      0.1368    
   83.00      0.1217    
   84.00      0.1078    
   85.00      0.9527E-01
   86.00      0.8404E-01
   87.00      0.7411E-01
   88.00      0.6543E-01
   89.00      0.5792E-01
   90.00      0.5146E-01
   91.00      0.4593E-01
   92.00      0.4120E-01
   93.00      0.3714E-01
   94.00      0.3363E-01
   95.00      0.3055E-01
   96.00      0.2782E-01
   97.00      0.2536E-01
   98.00      0.2311E-01
   99.00      0.2102E-01
   100.0      0.1907E-01
   101.0      0.1724E-01
   102.0      0.1552E-01
   103.0      0.1391E-01
   104.0      0.1241E-01
   105.0      0.1102E-01
   106.0      0.9739E-02
   107.0      0.8581E-02
   108.0      0.7540E-02
   109.0      0.6615E-02
   110.0      0.5801E-02
   111.0      0.5091E-02
   112.0      0.4479E-02
   113.0      0.3954E-02
   114.0      0.3506E-02
   115.0      0.3125E-02
   116.0      0.2801E-02
   117.0      0.2525E-02
   118.0      0.2288E-02
   119.0      0.2081E-02
   120.0      0.1899E-02
   121.0      0.1737E-02
   122.0      0.1590E-02
   123.0      0.1454E-02
   124.0      0.1329E-02
   125.0      0.1212E-02
   126.0      0.1102E-02
   127.0      0.9986E-03
   128.0      0.9024E-03
   129.0      0.8130E-03
   130.0      0.7305E-03
   131.0      0.6550E-03
   132.0      0.5866E-03
   133.0      0.5251E-03
   134.0      0.4703E-03
   135.0      0.4220E-03
   136.0      0.3797E-03
   137.0      0.3429E-03
   138.0      0.3110E-03
   139.0      0.2835E-03
   140.0      0.2596E-03
   141.0      0.2389E-03
   142.0      0.2208E-03
   143.0      0.2047E-03
   144.0      0.1904E-03
   145.0      0.1773E-03
   146.0      0.1652E-03
   147.0      0.1540E-03
   148.0      0.1433E-03
   149.0      0.1332E-03
   150.0      0.1235E-03
   151.0      0.1142E-03
   152.0      0.1052E-03
   153.0      0.9659E-04
   154.0      0.8835E-04
   155.0      0.8051E-04
   156.0      0.7310E-04
   157.0      0.6617E-04
   158.0      0.5976E-04
   159.0      0.5395E-04
   160.0      0.4880E-04
   161.0      0.4440E-04
   162.0      0.4082E-04
   163.0      0.3813E-04
   164.0      0.3641E-04
   165.0      0.3570E-04
   166.0      0.3603E-04
   167.0      0.3739E-04
   168.0      0.3974E-04
   169.0      0.4301E-04
   170.0      0.4707E-04
   171.0      0.5175E-04
   172.0      0.5688E-04
   173.0      0.6221E-04
   174.0      0.6750E-04
   175.0      0.7252E-04
   176.0      0.7702E-04
   177.0      0.8077E-04
   178.0      0.8359E-04
   179.0      0.8535E-04
   180.0      0.8594E-04
 END
@legend string   1 "Partition=  1 Excit=  2 near/far= 1"
#legend string   0 "Lab energy =   70.0000"
@s1 linestyle   2
#  Theta       sigma       iT11        T20         T21         T22         Kyy for projectile
   3.000       3.442    
   4.000       3.284    
   5.000       3.116    
   6.000       2.956    
   7.000       2.819    
   8.000       2.717    
   9.000       2.658    
   10.00       2.650    
   11.00       2.698    
   12.00       2.808    
   13.00       2.983    
   14.00       3.224    
   15.00       3.525    
   16.00       3.877    
   17.00       4.259    
   18.00       4.648    
   19.00       5.015    
   20.00       5.328    
   21.00       5.559    
   22.00       5.685    
   23.00       5.691    
   24.00       5.574    
   25.00       5.340    
   26.00       5.006    
   27.00       4.595    
   28.00       4.138    
   29.00       3.664    
   30.00       3.203    
   31.00       2.778    
   32.00       2.409    
   33.00       2.106    
   34.00       1.874    
   35.00       1.710    
   36.00       1.606    
   37.00       1.549    
   38.00       1.527    
   39.00       1.524    
   40.00       1.528    
   41.00       1.529    
   42.00       1.517    
   43.00       1.488    
   44.00       1.441    
   45.00       1.374    
   46.00       1.291    
   47.00       1.197    
   48.00       1.094    
   49.00      0.9884    
   50.00      0.8842    
   51.00      0.7849    
   52.00      0.6932    
   53.00      0.6109    
   54.00      0.5387    
   55.00      0.4766    
   56.00      0.4239    
   57.00      0.3796    
   58.00      0.3422    
   59.00      0.3104    
   60.00      0.2828    
   61.00      0.2582    
   62.00      0.2358    
   63.00      0.2148    
   64.00      0.1949    
   65.00      0.1757    
   66.00      0.1573    
   67.00      0.1397    
   68.00      0.1231    
   69.00      0.1076    
   70.00      0.9349E-01
   71.00      0.8075E-01
   72.00      0.6950E-01
   73.00      0.5975E-01
   74.00      0.5145E-01
   75.00      0.4450E-01
   76.00      0.3876E-01
   77.00      0.3407E-01
   78.00      0.3027E-01
   79.00      0.2717E-01
   80.00      0.2463E-01
   81.00      0.2250E-01
   82.00      0.2065E-01
   83.00      0.1901E-01
   84.00      0.1750E-01
   85.00      0.1607E-01
   86.00      0.1470E-01
   87.00      0.1337E-01
   88.00      0.1209E-01
   89.00      0.1085E-01
   90.00      0.9679E-02
   91.00      0.8577E-02
   92.00      0.7559E-02
   93.00      0.6630E-02
   94.00      0.5798E-02
   95.00      0.5062E-02
   96.00      0.4420E-02
   97.00      0.3868E-02
   98.00      0.3397E-02
   99.00      0.2999E-02
   100.0      0.2665E-02
   101.0      0.2385E-02
   102.0      0.2148E-02
   103.0      0.1947E-02
   104.0      0.1775E-02
   105.0      0.1624E-02
   106.0      0.1490E-02
   107.0      0.1370E-02
   108.0      0.1259E-02
   109.0      0.1158E-02
   110.0      0.1064E-02
   111.0      0.9769E-03
   112.0      0.8964E-03
   113.0      0.8225E-03
   114.0      0.7550E-03
   115.0      0.6939E-03
   116.0      0.6391E-03
   117.0      0.5903E-03
   118.0      0.5471E-03
   119.0      0.5091E-03
   120.0      0.4756E-03
   121.0      0.4461E-03
   122.0      0.4197E-03
   123.0      0.3960E-03
   124.0      0.3742E-03
   125.0      0.3538E-03
   126.0      0.3344E-03
   127.0      0.3156E-03
   128.0      0.2970E-03
   129.0      0.2786E-03
   130.0      0.2603E-03
   131.0      0.2421E-03
   132.0      0.2240E-03
   133.0      0.2061E-03
   134.0      0.1886E-03
   135.0      0.1718E-03
   136.0      0.1556E-03
   137.0      0.1404E-03
   138.0      0.1262E-03
   139.0      0.1132E-03
   140.0      0.1015E-03
   141.0      0.9107E-04
   142.0      0.8200E-04
   143.0      0.7425E-04
   144.0      0.6780E-04
   145.0      0.6257E-04
   146.0      0.5849E-04
   147.0      0.5544E-04
   148.0      0.5332E-04
   149.0      0.5198E-04
   150.0      0.5130E-04
   151.0      0.5113E-04
   152.0      0.5134E-04
   153.0      0.5181E-04
   154.0      0.5240E-04
   155.0      0.5300E-04
   156.0      0.5352E-04
   157.0      0.5385E-04
   158.0      0.5392E-04
   159.0      0.5369E-04
   160.0      0.5310E-04
   161.0      0.5214E-04
   162.0      0.5080E-04
   163.0      0.4911E-04
   164.0      0.4708E-04
   165.0      0.4477E-04
   166.0      0.4221E-04
   167.0      0.3948E-04
   168.0      0.3664E-04
   169.0      0.3375E-04
   170.0      0.3089E-04
   171.0      0.2811E-04
   172.0      0.2548E-04
   173.0      0.2305E-04
   174.0      0.2085E-04
   175.0      0.1894E-04
   176.0      0.1734E-04
   177.0      0.1607E-04
   178.0      0.1516E-04
   179.0      0.1461E-04
   180.0      0.1442E-04
 END
