# 178 angles,  1 tensor ranks for 0=projectile
@subtitle   "20O + d Ex 7.639 3-;"                                                          
@legend ON
@legend x1 0.2
@legend y1 0.8
@g0 type LOGY
@yaxis ticklabel format power
@xaxis label "Scattering angle (degrees)"
@yaxis label "Cross section (mb/sr)"
@legend string   0 "Partition=  1 Excit=  1 near/far= 1"
#legend string   0 "Lab energy =   70.0000"
@s0 linestyle   1
#  Theta       sigma       iT11        T20         T21         T22         Kyy for projectile
   3.000      0.2748E+05
   4.000      0.1165E+05
   5.000       8264.    
   6.000       6773.    
   7.000       5566.    
   8.000       4418.    
   9.000       3349.    
   10.00       2408.    
   11.00       1630.    
   12.00       1027.    
   13.00       591.6    
   14.00       302.8    
   15.00       133.0    
   16.00       51.93    
   17.00       30.85    
   18.00       45.10    
   19.00       75.38    
   20.00       108.0    
   21.00       134.6    
   22.00       151.0    
   23.00       156.3    
   24.00       151.8    
   25.00       139.8    
   26.00       123.2    
   27.00       104.6    
   28.00       86.05    
   29.00       69.20    
   30.00       54.94    
   31.00       43.61    
   32.00       35.16    
   33.00       29.22    
   34.00       25.29    
   35.00       22.82    
   36.00       21.29    
   37.00       20.27    
   38.00       19.42    
   39.00       18.51    
   40.00       17.45    
   41.00       16.17    
   42.00       14.71    
   43.00       13.12    
   44.00       11.47    
   45.00       9.844    
   46.00       8.301    
   47.00       6.895    
   48.00       5.662    
   49.00       4.618    
   50.00       3.764    
   51.00       3.089    
   52.00       2.574    
   53.00       2.192    
   54.00       1.916    
   55.00       1.719    
   56.00       1.578    
   57.00       1.473    
   58.00       1.385    
   59.00       1.306    
   60.00       1.225    
   61.00       1.141    
   62.00       1.050    
   63.00      0.9549    
   64.00      0.8567    
   65.00      0.7585    
   66.00      0.6631    
   67.00      0.5731    
   68.00      0.4908    
   69.00      0.4176    
   70.00      0.3543    
   71.00      0.3010    
   72.00      0.2573    
   73.00      0.2223    
   74.00      0.1947    
   75.00      0.1733    
   76.00      0.1567    
   77.00      0.1437    
   78.00      0.1330    
   79.00      0.1238    
   80.00      0.1153    
   81.00      0.1071    
   82.00      0.9879E-01
   83.00      0.9030E-01
   84.00      0.8164E-01
   85.00      0.7293E-01
   86.00      0.6431E-01
   87.00      0.5599E-01
   88.00      0.4815E-01
   89.00      0.4094E-01
   90.00      0.3449E-01
   91.00      0.2887E-01
   92.00      0.2410E-01
   93.00      0.2017E-01
   94.00      0.1702E-01
   95.00      0.1457E-01
   96.00      0.1272E-01
   97.00      0.1136E-01
   98.00      0.1037E-01
   99.00      0.9663E-02
   100.0      0.9133E-02
   101.0      0.8707E-02
   102.0      0.8325E-02
   103.0      0.7942E-02
   104.0      0.7531E-02
   105.0      0.7077E-02
   106.0      0.6578E-02
   107.0      0.6039E-02
   108.0      0.5472E-02
   109.0      0.4891E-02
   110.0      0.4313E-02
   111.0      0.3753E-02
   112.0      0.3224E-02
   113.0      0.2737E-02
   114.0      0.2300E-02
   115.0      0.1916E-02
   116.0      0.1587E-02
   117.0      0.1311E-02
   118.0      0.1087E-02
   119.0      0.9073E-03
   120.0      0.7677E-03
   121.0      0.6615E-03
   122.0      0.5825E-03
   123.0      0.5245E-03
   124.0      0.4824E-03
   125.0      0.4512E-03
   126.0      0.4273E-03
   127.0      0.4076E-03
   128.0      0.3897E-03
   129.0      0.3721E-03
   130.0      0.3539E-03
   131.0      0.3345E-03
   132.0      0.3139E-03
   133.0      0.2921E-03
   134.0      0.2695E-03
   135.0      0.2466E-03
   136.0      0.2237E-03
   137.0      0.2014E-03
   138.0      0.1800E-03
   139.0      0.1600E-03
   140.0      0.1416E-03
   141.0      0.1249E-03
   142.0      0.1102E-03
   143.0      0.9750E-04
   144.0      0.8678E-04
   145.0      0.7800E-04
   146.0      0.7110E-04
   147.0      0.6597E-04
   148.0      0.6249E-04
   149.0      0.6053E-04
   150.0      0.5997E-04
   151.0      0.6067E-04
   152.0      0.6250E-04
   153.0      0.6531E-04
   154.0      0.6896E-04
   155.0      0.7328E-04
   156.0      0.7809E-04
   157.0      0.8319E-04
   158.0      0.8835E-04
   159.0      0.9333E-04
   160.0      0.9788E-04
   161.0      0.1018E-03
   162.0      0.1047E-03
   163.0      0.1065E-03
   164.0      0.1069E-03
   165.0      0.1059E-03
   166.0      0.1033E-03
   167.0      0.9915E-04
   168.0      0.9352E-04
   169.0      0.8654E-04
   170.0      0.7844E-04
   171.0      0.6950E-04
   172.0      0.6005E-04
   173.0      0.5046E-04
   174.0      0.4113E-04
   175.0      0.3243E-04
   176.0      0.2474E-04
   177.0      0.1838E-04
   178.0      0.1364E-04
   179.0      0.1070E-04
   180.0      0.9709E-05
 END
@legend string   1 "Partition=  1 Excit=  2 near/far= 1"
#legend string   0 "Lab energy =   70.0000"
@s1 linestyle   2
#  Theta       sigma       iT11        T20         T21         T22         Kyy for projectile
   3.000       13.58    
   4.000       16.45    
   5.000       19.43    
   6.000       22.25    
   7.000       24.74    
   8.000       26.88    
   9.000       28.78    
   10.00       30.61    
   11.00       32.53    
   12.00       34.65    
   13.00       36.97    
   14.00       39.38    
   15.00       41.65    
   16.00       43.50    
   17.00       44.65    
   18.00       44.84    
   19.00       43.95    
   20.00       41.95    
   21.00       38.95    
   22.00       35.16    
   23.00       30.89    
   24.00       26.46    
   25.00       22.19    
   26.00       18.36    
   27.00       15.18    
   28.00       12.75    
   29.00       11.10    
   30.00       10.17    
   31.00       9.842    
   32.00       9.956    
   33.00       10.34    
   34.00       10.82    
   35.00       11.26    
   36.00       11.54    
   37.00       11.61    
   38.00       11.42    
   39.00       11.00    
   40.00       10.36    
   41.00       9.574    
   42.00       8.695    
   43.00       7.787    
   44.00       6.905    
   45.00       6.091    
   46.00       5.376    
   47.00       4.774    
   48.00       4.288    
   49.00       3.907    
   50.00       3.615    
   51.00       3.392    
   52.00       3.216    
   53.00       3.066    
   54.00       2.924    
   55.00       2.777    
   56.00       2.618    
   57.00       2.442    
   58.00       2.250    
   59.00       2.045    
   60.00       1.833    
   61.00       1.621    
   62.00       1.414    
   63.00       1.219    
   64.00       1.040    
   65.00      0.8819    
   66.00      0.7452    
   67.00      0.6304    
   68.00      0.5365    
   69.00      0.4616    
   70.00      0.4031    
   71.00      0.3579    
   72.00      0.3231    
   73.00      0.2958    
   74.00      0.2737    
   75.00      0.2546    
   76.00      0.2372    
   77.00      0.2203    
   78.00      0.2033    
   79.00      0.1861    
   80.00      0.1688    
   81.00      0.1515    
   82.00      0.1345    
   83.00      0.1183    
   84.00      0.1032    
   85.00      0.8948E-01
   86.00      0.7727E-01
   87.00      0.6667E-01
   88.00      0.5768E-01
   89.00      0.5022E-01
   90.00      0.4414E-01
   91.00      0.3924E-01
   92.00      0.3532E-01
   93.00      0.3217E-01
   94.00      0.2960E-01
   95.00      0.2742E-01
   96.00      0.2550E-01
   97.00      0.2373E-01
   98.00      0.2203E-01
   99.00      0.2035E-01
   100.0      0.1868E-01
   101.0      0.1702E-01
   102.0      0.1539E-01
   103.0      0.1380E-01
   104.0      0.1228E-01
   105.0      0.1087E-01
   106.0      0.9573E-02
   107.0      0.8416E-02
   108.0      0.7405E-02
   109.0      0.6541E-02
   110.0      0.5819E-02
   111.0      0.5229E-02
   112.0      0.4755E-02
   113.0      0.4381E-02
   114.0      0.4087E-02
   115.0      0.3854E-02
   116.0      0.3665E-02
   117.0      0.3504E-02
   118.0      0.3357E-02
   119.0      0.3214E-02
   120.0      0.3068E-02
   121.0      0.2914E-02
   122.0      0.2750E-02
   123.0      0.2575E-02
   124.0      0.2392E-02
   125.0      0.2202E-02
   126.0      0.2010E-02
   127.0      0.1819E-02
   128.0      0.1633E-02
   129.0      0.1456E-02
   130.0      0.1290E-02
   131.0      0.1137E-02
   132.0      0.9997E-03
   133.0      0.8786E-03
   134.0      0.7738E-03
   135.0      0.6850E-03
   136.0      0.6111E-03
   137.0      0.5510E-03
   138.0      0.5030E-03
   139.0      0.4652E-03
   140.0      0.4360E-03
   141.0      0.4136E-03
   142.0      0.3961E-03
   143.0      0.3822E-03
   144.0      0.3705E-03
   145.0      0.3600E-03
   146.0      0.3498E-03
   147.0      0.3393E-03
   148.0      0.3282E-03
   149.0      0.3161E-03
   150.0      0.3032E-03
   151.0      0.2895E-03
   152.0      0.2752E-03
   153.0      0.2604E-03
   154.0      0.2455E-03
   155.0      0.2307E-03
   156.0      0.2162E-03
   157.0      0.2023E-03
   158.0      0.1892E-03
   159.0      0.1770E-03
   160.0      0.1657E-03
   161.0      0.1554E-03
   162.0      0.1462E-03
   163.0      0.1380E-03
   164.0      0.1308E-03
   165.0      0.1244E-03
   166.0      0.1190E-03
   167.0      0.1143E-03
   168.0      0.1104E-03
   169.0      0.1071E-03
   170.0      0.1044E-03
   171.0      0.1023E-03
   172.0      0.1006E-03
   173.0      0.9923E-04
   174.0      0.9823E-04
   175.0      0.9749E-04
   176.0      0.9697E-04
   177.0      0.9662E-04
   178.0      0.9640E-04
   179.0      0.9628E-04
   180.0      0.9624E-04
 END
