# 178 angles,  1 tensor ranks for 0=projectile
@subtitle   "20O + d Ex 11.722 3-;"                                                         
@legend ON
@legend x1 0.2
@legend y1 0.8
@g0 type LOGY
@yaxis ticklabel format power
@xaxis label "Scattering angle (degrees)"
@yaxis label "Cross section (mb/sr)"
@legend string   0 "Partition=  1 Excit=  1 near/far= 1"
#legend string   0 "Lab energy =   70.0000"
@s0 linestyle   1
#  Theta       sigma       iT11        T20         T21         T22         Kyy for projectile
   3.000      0.2751E+05
   4.000      0.1165E+05
   5.000       8256.    
   6.000       6759.    
   7.000       5550.    
   8.000       4402.    
   9.000       3333.    
   10.00       2394.    
   11.00       1618.    
   12.00       1017.    
   13.00       584.2    
   14.00       297.7    
   15.00       130.0    
   16.00       50.73    
   17.00       31.03    
   18.00       46.27    
   19.00       77.13    
   20.00       110.0    
   21.00       136.5    
   22.00       152.7    
   23.00       157.6    
   24.00       152.6    
   25.00       140.1    
   26.00       123.0    
   27.00       104.0    
   28.00       85.20    
   29.00       68.15    
   30.00       53.78    
   31.00       42.42    
   32.00       34.00    
   33.00       28.13    
   34.00       24.31    
   35.00       21.96    
   36.00       20.54    
   37.00       19.62    
   38.00       18.86    
   39.00       18.03    
   40.00       17.03    
   41.00       15.80    
   42.00       14.38    
   43.00       12.83    
   44.00       11.21    
   45.00       9.611    
   46.00       8.100    
   47.00       6.728    
   48.00       5.531    
   49.00       4.524    
   50.00       3.707    
   51.00       3.068    
   52.00       2.586    
   53.00       2.233    
   54.00       1.982    
   55.00       1.804    
   56.00       1.677    
   57.00       1.579    
   58.00       1.495    
   59.00       1.414    
   60.00       1.329    
   61.00       1.237    
   62.00       1.137    
   63.00       1.032    
   64.00      0.9228    
   65.00      0.8142    
   66.00      0.7092    
   67.00      0.6107    
   68.00      0.5211    
   69.00      0.4418    
   70.00      0.3737    
   71.00      0.3167    
   72.00      0.2702    
   73.00      0.2332    
   74.00      0.2042    
   75.00      0.1819    
   76.00      0.1646    
   77.00      0.1511    
   78.00      0.1399    
   79.00      0.1303    
   80.00      0.1213    
   81.00      0.1124    
   82.00      0.1035    
   83.00      0.9435E-01
   84.00      0.8500E-01
   85.00      0.7561E-01
   86.00      0.6636E-01
   87.00      0.5746E-01
   88.00      0.4912E-01
   89.00      0.4150E-01
   90.00      0.3474E-01
   91.00      0.2890E-01
   92.00      0.2400E-01
   93.00      0.2001E-01
   94.00      0.1686E-01
   95.00      0.1446E-01
   96.00      0.1269E-01
   97.00      0.1141E-01
   98.00      0.1052E-01
   99.00      0.9880E-02
   100.0      0.9405E-02
   101.0      0.9011E-02
   102.0      0.8633E-02
   103.0      0.8231E-02
   104.0      0.7777E-02
   105.0      0.7264E-02
   106.0      0.6694E-02
   107.0      0.6078E-02
   108.0      0.5434E-02
   109.0      0.4782E-02
   110.0      0.4141E-02
   111.0      0.3530E-02
   112.0      0.2964E-02
   113.0      0.2454E-02
   114.0      0.2008E-02
   115.0      0.1627E-02
   116.0      0.1312E-02
   117.0      0.1058E-02
   118.0      0.8586E-03
   119.0      0.7074E-03
   120.0      0.5956E-03
   121.0      0.5150E-03
   122.0      0.4578E-03
   123.0      0.4170E-03
   124.0      0.3868E-03
   125.0      0.3625E-03
   126.0      0.3408E-03
   127.0      0.3193E-03
   128.0      0.2969E-03
   129.0      0.2730E-03
   130.0      0.2478E-03
   131.0      0.2219E-03
   132.0      0.1961E-03
   133.0      0.1713E-03
   134.0      0.1483E-03
   135.0      0.1277E-03
   136.0      0.1102E-03
   137.0      0.9600E-04
   138.0      0.8504E-04
   139.0      0.7719E-04
   140.0      0.7208E-04
   141.0      0.6919E-04
   142.0      0.6795E-04
   143.0      0.6774E-04
   144.0      0.6796E-04
   145.0      0.6808E-04
   146.0      0.6768E-04
   147.0      0.6648E-04
   148.0      0.6435E-04
   149.0      0.6129E-04
   150.0      0.5747E-04
   151.0      0.5317E-04
   152.0      0.4876E-04
   153.0      0.4464E-04
   154.0      0.4123E-04
   155.0      0.3890E-04
   156.0      0.3796E-04
   157.0      0.3860E-04
   158.0      0.4087E-04
   159.0      0.4469E-04
   160.0      0.4988E-04
   161.0      0.5609E-04
   162.0      0.6294E-04
   163.0      0.6996E-04
   164.0      0.7668E-04
   165.0      0.8266E-04
   166.0      0.8751E-04
   167.0      0.9094E-04
   168.0      0.9277E-04
   169.0      0.9292E-04
   170.0      0.9147E-04
   171.0      0.8858E-04
   172.0      0.8451E-04
   173.0      0.7960E-04
   174.0      0.7425E-04
   175.0      0.6884E-04
   176.0      0.6379E-04
   177.0      0.5944E-04
   178.0      0.5610E-04
   179.0      0.5400E-04
   180.0      0.5328E-04
 END
@legend string   1 "Partition=  1 Excit=  2 near/far= 1"
#legend string   0 "Lab energy =   70.0000"
@s1 linestyle   2
#  Theta       sigma       iT11        T20         T21         T22         Kyy for projectile
   3.000       16.24    
   4.000       18.32    
   5.000       20.60    
   6.000       22.88    
   7.000       25.05    
   8.000       27.06    
   9.000       28.93    
   10.00       30.76    
   11.00       32.62    
   12.00       34.56    
   13.00       36.57    
   14.00       38.54    
   15.00       40.30    
   16.00       41.66    
   17.00       42.38    
   18.00       42.31    
   19.00       41.32    
   20.00       39.42    
   21.00       36.67    
   22.00       33.26    
   23.00       29.40    
   24.00       25.38    
   25.00       21.45    
   26.00       17.85    
   27.00       14.76    
   28.00       12.30    
   29.00       10.51    
   30.00       9.377    
   31.00       8.808    
   32.00       8.687    
   33.00       8.875    
   34.00       9.228    
   35.00       9.615    
   36.00       9.932    
   37.00       10.10    
   38.00       10.08    
   39.00       9.852    
   40.00       9.438    
   41.00       8.869    
   42.00       8.190    
   43.00       7.452    
   44.00       6.703    
   45.00       5.986    
   46.00       5.332    
   47.00       4.763    
   48.00       4.286    
   49.00       3.903    
   50.00       3.602    
   51.00       3.371    
   52.00       3.192    
   53.00       3.047    
   54.00       2.918    
   55.00       2.792    
   56.00       2.660    
   57.00       2.514    
   58.00       2.352    
   59.00       2.175    
   60.00       1.986    
   61.00       1.789    
   62.00       1.592    
   63.00       1.400    
   64.00       1.217    
   65.00       1.049    
   66.00      0.8985    
   67.00      0.7672    
   68.00      0.6556    
   69.00      0.5631    
   70.00      0.4882    
   71.00      0.4285    
   72.00      0.3817    
   73.00      0.3451    
   74.00      0.3161    
   75.00      0.2924    
   76.00      0.2722    
   77.00      0.2539    
   78.00      0.2364    
   79.00      0.2192    
   80.00      0.2019    
   81.00      0.1844    
   82.00      0.1669    
   83.00      0.1497    
   84.00      0.1330    
   85.00      0.1173    
   86.00      0.1027    
   87.00      0.8958E-01
   88.00      0.7797E-01
   89.00      0.6793E-01
   90.00      0.5942E-01
   91.00      0.5234E-01
   92.00      0.4654E-01
   93.00      0.4184E-01
   94.00      0.3804E-01
   95.00      0.3493E-01
   96.00      0.3234E-01
   97.00      0.3011E-01
   98.00      0.2811E-01
   99.00      0.2624E-01
   100.0      0.2443E-01
   101.0      0.2265E-01
   102.0      0.2088E-01
   103.0      0.1912E-01
   104.0      0.1739E-01
   105.0      0.1571E-01
   106.0      0.1410E-01
   107.0      0.1259E-01
   108.0      0.1121E-01
   109.0      0.9964E-02
   110.0      0.8867E-02
   111.0      0.7921E-02
   112.0      0.7120E-02
   113.0      0.6457E-02
   114.0      0.5915E-02
   115.0      0.5479E-02
   116.0      0.5130E-02
   117.0      0.4846E-02
   118.0      0.4611E-02
   119.0      0.4407E-02
   120.0      0.4222E-02
   121.0      0.4043E-02
   122.0      0.3863E-02
   123.0      0.3676E-02
   124.0      0.3479E-02
   125.0      0.3271E-02
   126.0      0.3053E-02
   127.0      0.2828E-02
   128.0      0.2599E-02
   129.0      0.2371E-02
   130.0      0.2148E-02
   131.0      0.1933E-02
   132.0      0.1732E-02
   133.0      0.1546E-02
   134.0      0.1377E-02
   135.0      0.1226E-02
   136.0      0.1095E-02
   137.0      0.9816E-03
   138.0      0.8861E-03
   139.0      0.8069E-03
   140.0      0.7424E-03
   141.0      0.6907E-03
   142.0      0.6501E-03
   143.0      0.6186E-03
   144.0      0.5940E-03
   145.0      0.5742E-03
   146.0      0.5572E-03
   147.0      0.5416E-03
   148.0      0.5266E-03
   149.0      0.5120E-03
   150.0      0.4975E-03
   151.0      0.4829E-03
   152.0      0.4677E-03
   153.0      0.4515E-03
   154.0      0.4340E-03
   155.0      0.4154E-03
   156.0      0.3960E-03
   157.0      0.3762E-03
   158.0      0.3564E-03
   159.0      0.3369E-03
   160.0      0.3178E-03
   161.0      0.2992E-03
   162.0      0.2809E-03
   163.0      0.2632E-03
   164.0      0.2461E-03
   165.0      0.2297E-03
   166.0      0.2141E-03
   167.0      0.1997E-03
   168.0      0.1864E-03
   169.0      0.1743E-03
   170.0      0.1635E-03
   171.0      0.1539E-03
   172.0      0.1456E-03
   173.0      0.1385E-03
   174.0      0.1325E-03
   175.0      0.1275E-03
   176.0      0.1232E-03
   177.0      0.1197E-03
   178.0      0.1168E-03
   179.0      0.1150E-03
   180.0      0.1143E-03
 END
