# 178 angles,  1 tensor ranks for 0=projectile
@subtitle   "20O + d Ex 7.639 3-;"                                                          
@legend ON
@legend x1 0.2
@legend y1 0.8
@g0 type LOGY
@yaxis ticklabel format power
@xaxis label "Scattering angle (degrees)"
@yaxis label "Cross section (mb/sr)"
@legend string   0 "Partition=  1 Excit=  1 near/far= 1"
#legend string   0 "Lab energy =   70.0000"
@s0 linestyle   1
#  Theta       sigma       iT11        T20         T21         T22         Kyy for projectile
   3.000      0.2746E+05
   4.000      0.1164E+05
   5.000       8260.    
   6.000       6771.    
   7.000       5566.    
   8.000       4418.    
   9.000       3348.    
   10.00       2408.    
   11.00       1630.    
   12.00       1027.    
   13.00       591.3    
   14.00       302.7    
   15.00       133.1    
   16.00       52.27    
   17.00       31.38    
   18.00       45.80    
   19.00       76.19    
   20.00       108.9    
   21.00       135.5    
   22.00       151.9    
   23.00       157.2    
   24.00       152.6    
   25.00       140.6    
   26.00       123.9    
   27.00       105.2    
   28.00       86.60    
   29.00       69.70    
   30.00       55.40    
   31.00       44.04    
   32.00       35.56    
   33.00       29.60    
   34.00       25.66    
   35.00       23.17    
   36.00       21.63    
   37.00       20.58    
   38.00       19.71    
   39.00       18.79    
   40.00       17.70    
   41.00       16.41    
   42.00       14.93    
   43.00       13.31    
   44.00       11.65    
   45.00       9.997    
   46.00       8.435    
   47.00       7.013    
   48.00       5.765    
   49.00       4.708    
   50.00       3.843    
   51.00       3.158    
   52.00       2.634    
   53.00       2.244    
   54.00       1.962    
   55.00       1.760    
   56.00       1.614    
   57.00       1.503    
   58.00       1.412    
   59.00       1.329    
   60.00       1.246    
   61.00       1.159    
   62.00       1.066    
   63.00      0.9683    
   64.00      0.8683    
   65.00      0.7684    
   66.00      0.6716    
   67.00      0.5805    
   68.00      0.4973    
   69.00      0.4233    
   70.00      0.3593    
   71.00      0.3055    
   72.00      0.2614    
   73.00      0.2260    
   74.00      0.1982    
   75.00      0.1766    
   76.00      0.1598    
   77.00      0.1465    
   78.00      0.1357    
   79.00      0.1262    
   80.00      0.1175    
   81.00      0.1091    
   82.00      0.1005    
   83.00      0.9180E-01
   84.00      0.8292E-01
   85.00      0.7399E-01
   86.00      0.6518E-01
   87.00      0.5669E-01
   88.00      0.4871E-01
   89.00      0.4139E-01
   90.00      0.3486E-01
   91.00      0.2918E-01
   92.00      0.2438E-01
   93.00      0.2043E-01
   94.00      0.1729E-01
   95.00      0.1485E-01
   96.00      0.1302E-01
   97.00      0.1167E-01
   98.00      0.1070E-01
   99.00      0.1000E-01
   100.0      0.9480E-02
   101.0      0.9052E-02
   102.0      0.8658E-02
   103.0      0.8257E-02
   104.0      0.7822E-02
   105.0      0.7338E-02
   106.0      0.6806E-02
   107.0      0.6233E-02
   108.0      0.5631E-02
   109.0      0.5017E-02
   110.0      0.4409E-02
   111.0      0.3822E-02
   112.0      0.3271E-02
   113.0      0.2766E-02
   114.0      0.2316E-02
   115.0      0.1923E-02
   116.0      0.1589E-02
   117.0      0.1312E-02
   118.0      0.1088E-02
   119.0      0.9116E-03
   120.0      0.7762E-03
   121.0      0.6749E-03
   122.0      0.6008E-03
   123.0      0.5475E-03
   124.0      0.5094E-03
   125.0      0.4814E-03
   126.0      0.4597E-03
   127.0      0.4411E-03
   128.0      0.4234E-03
   129.0      0.4051E-03
   130.0      0.3854E-03
   131.0      0.3639E-03
   132.0      0.3407E-03
   133.0      0.3161E-03
   134.0      0.2905E-03
   135.0      0.2645E-03
   136.0      0.2388E-03
   137.0      0.2137E-03
   138.0      0.1900E-03
   139.0      0.1678E-03
   140.0      0.1476E-03
   141.0      0.1296E-03
   142.0      0.1139E-03
   143.0      0.1005E-03
   144.0      0.8943E-04
   145.0      0.8066E-04
   146.0      0.7403E-04
   147.0      0.6941E-04
   148.0      0.6664E-04
   149.0      0.6553E-04
   150.0      0.6591E-04
   151.0      0.6759E-04
   152.0      0.7039E-04
   153.0      0.7411E-04
   154.0      0.7856E-04
   155.0      0.8354E-04
   156.0      0.8882E-04
   157.0      0.9420E-04
   158.0      0.9942E-04
   159.0      0.1042E-03
   160.0      0.1084E-03
   161.0      0.1118E-03
   162.0      0.1140E-03
   163.0      0.1150E-03
   164.0      0.1145E-03
   165.0      0.1125E-03
   166.0      0.1090E-03
   167.0      0.1040E-03
   168.0      0.9749E-04
   169.0      0.8979E-04
   170.0      0.8107E-04
   171.0      0.7164E-04
   172.0      0.6183E-04
   173.0      0.5199E-04
   174.0      0.4249E-04
   175.0      0.3372E-04
   176.0      0.2600E-04
   177.0      0.1966E-04
   178.0      0.1493E-04
   179.0      0.1202E-04
   180.0      0.1103E-04
 END
@legend string   1 "Partition=  1 Excit=  2 near/far= 1"
#legend string   0 "Lab energy =   70.0000"
@s1 linestyle   2
#  Theta       sigma       iT11        T20         T21         T22         Kyy for projectile
   3.000       13.13    
   4.000       15.81    
   5.000       18.69    
   6.000       21.47    
   7.000       23.96    
   8.000       26.10    
   9.000       27.96    
   10.00       29.73    
   11.00       31.58    
   12.00       33.62    
   13.00       35.88    
   14.00       38.25    
   15.00       40.50    
   16.00       42.37    
   17.00       43.55    
   18.00       43.81    
   19.00       42.99    
   20.00       41.08    
   21.00       38.17    
   22.00       34.48    
   23.00       30.31    
   24.00       25.97    
   25.00       21.78    
   26.00       18.02    
   27.00       14.88    
   28.00       12.49    
   29.00       10.86    
   30.00       9.939    
   31.00       9.615    
   32.00       9.729    
   33.00       10.11    
   34.00       10.59    
   35.00       11.02    
   36.00       11.31    
   37.00       11.37    
   38.00       11.19    
   39.00       10.78    
   40.00       10.15    
   41.00       9.376    
   42.00       8.510    
   43.00       7.615    
   44.00       6.745    
   45.00       5.944    
   46.00       5.241    
   47.00       4.650    
   48.00       4.172    
   49.00       3.799    
   50.00       3.514    
   51.00       3.297    
   52.00       3.127    
   53.00       2.982    
   54.00       2.845    
   55.00       2.703    
   56.00       2.549    
   57.00       2.378    
   58.00       2.190    
   59.00       1.990    
   60.00       1.783    
   61.00       1.575    
   62.00       1.373    
   63.00       1.182    
   64.00       1.008    
   65.00      0.8528    
   66.00      0.7195    
   67.00      0.6078    
   68.00      0.5167    
   69.00      0.4442    
   70.00      0.3878    
   71.00      0.3444    
   72.00      0.3112    
   73.00      0.2852    
   74.00      0.2642    
   75.00      0.2461    
   76.00      0.2294    
   77.00      0.2132    
   78.00      0.1968    
   79.00      0.1802    
   80.00      0.1633    
   81.00      0.1464    
   82.00      0.1299    
   83.00      0.1141    
   84.00      0.9936E-01
   85.00      0.8598E-01
   86.00      0.7414E-01
   87.00      0.6391E-01
   88.00      0.5528E-01
   89.00      0.4814E-01
   90.00      0.4234E-01
   91.00      0.3772E-01
   92.00      0.3404E-01
   93.00      0.3112E-01
   94.00      0.2873E-01
   95.00      0.2671E-01
   96.00      0.2491E-01
   97.00      0.2323E-01
   98.00      0.2161E-01
   99.00      0.1999E-01
   100.0      0.1836E-01
   101.0      0.1672E-01
   102.0      0.1509E-01
   103.0      0.1351E-01
   104.0      0.1201E-01
   105.0      0.1060E-01
   106.0      0.9316E-02
   107.0      0.8172E-02
   108.0      0.7177E-02
   109.0      0.6334E-02
   110.0      0.5636E-02
   111.0      0.5072E-02
   112.0      0.4624E-02
   113.0      0.4278E-02
   114.0      0.4013E-02
   115.0      0.3811E-02
   116.0      0.3651E-02
   117.0      0.3515E-02
   118.0      0.3388E-02
   119.0      0.3260E-02
   120.0      0.3124E-02
   121.0      0.2977E-02
   122.0      0.2816E-02
   123.0      0.2642E-02
   124.0      0.2457E-02
   125.0      0.2264E-02
   126.0      0.2068E-02
   127.0      0.1872E-02
   128.0      0.1679E-02
   129.0      0.1494E-02
   130.0      0.1319E-02
   131.0      0.1159E-02
   132.0      0.1016E-02
   133.0      0.8917E-03
   134.0      0.7852E-03
   135.0      0.6959E-03
   136.0      0.6228E-03
   137.0      0.5642E-03
   138.0      0.5179E-03
   139.0      0.4817E-03
   140.0      0.4534E-03
   141.0      0.4318E-03
   142.0      0.4160E-03
   143.0      0.4053E-03
   144.0      0.3981E-03
   145.0      0.3920E-03
   146.0      0.3846E-03
   147.0      0.3747E-03
   148.0      0.3623E-03
   149.0      0.3486E-03
   150.0      0.3347E-03
   151.0      0.3209E-03
   152.0      0.3068E-03
   153.0      0.2921E-03
   154.0      0.2763E-03
   155.0      0.2599E-03
   156.0      0.2434E-03
   157.0      0.2272E-03
   158.0      0.2119E-03
   159.0      0.1977E-03
   160.0      0.1849E-03
   161.0      0.1737E-03
   162.0      0.1641E-03
   163.0      0.1558E-03
   164.0      0.1486E-03
   165.0      0.1421E-03
   166.0      0.1364E-03
   167.0      0.1317E-03
   168.0      0.1280E-03
   169.0      0.1252E-03
   170.0      0.1234E-03
   171.0      0.1225E-03
   172.0      0.1224E-03
   173.0      0.1231E-03
   174.0      0.1242E-03
   175.0      0.1251E-03
   176.0      0.1250E-03
   177.0      0.1239E-03
   178.0      0.1221E-03
   179.0      0.1205E-03
   180.0      0.1198E-03
 END
