# 178 angles,  1 tensor ranks for 0=projectile
@subtitle   "p+O20 1st with BG ;"                                                           
@legend ON
@legend x1 0.2
@legend y1 0.8
@g0 type LOGY
@yaxis ticklabel format power
@xaxis label "Scattering angle (degrees)"
@yaxis label "Cross section (mb/sr)"
@legend string   0 "Partition=  1 Excit=  1 near/far= 1"
#legend string   0 "Lab energy =   43.0000"
@s0 linestyle   1
#  Theta       sigma       iT11        T20         T21         T22         Kyy for projectile
   3.000      0.7913E+05
   4.000      0.2184E+05
   5.000       8440.    
   6.000       4486.    
   7.000       3137.    
   8.000       2614.    
   9.000       2368.    
   10.00       2211.    
   11.00       2078.    
   12.00       1945.    
   13.00       1805.    
   14.00       1660.    
   15.00       1511.    
   16.00       1362.    
   17.00       1215.    
   18.00       1073.    
   19.00       937.8    
   20.00       811.5    
   21.00       695.1    
   22.00       589.2    
   23.00       494.2    
   24.00       410.0    
   25.00       336.6    
   26.00       273.3    
   27.00       219.6    
   28.00       174.8    
   29.00       137.9    
   30.00       108.2    
   31.00       84.70    
   32.00       66.61    
   33.00       53.07    
   34.00       43.31    
   35.00       36.59    
   36.00       32.27    
   37.00       29.79    
   38.00       28.64    
   39.00       28.40    
   40.00       28.73    
   41.00       29.36    
   42.00       30.05    
   43.00       30.66    
   44.00       31.06    
   45.00       31.19    
   46.00       31.01    
   47.00       30.51    
   48.00       29.69    
   49.00       28.59    
   50.00       27.24    
   51.00       25.69    
   52.00       23.98    
   53.00       22.17    
   54.00       20.29    
   55.00       18.41    
   56.00       16.54    
   57.00       14.74    
   58.00       13.01    
   59.00       11.39    
   60.00       9.893    
   61.00       8.527    
   62.00       7.298    
   63.00       6.207    
   64.00       5.253    
   65.00       4.430    
   66.00       3.731    
   67.00       3.147    
   68.00       2.666    
   69.00       2.278    
   70.00       1.971    
   71.00       1.733    
   72.00       1.554    
   73.00       1.423    
   74.00       1.330    
   75.00       1.267    
   76.00       1.227    
   77.00       1.201    
   78.00       1.186    
   79.00       1.176    
   80.00       1.167    
   81.00       1.157    
   82.00       1.143    
   83.00       1.125    
   84.00       1.100    
   85.00       1.070    
   86.00       1.033    
   87.00      0.9915    
   88.00      0.9446    
   89.00      0.8936    
   90.00      0.8393    
   91.00      0.7827    
   92.00      0.7247    
   93.00      0.6663    
   94.00      0.6083    
   95.00      0.5515    
   96.00      0.4965    
   97.00      0.4441    
   98.00      0.3945    
   99.00      0.3482    
   100.0      0.3055    
   101.0      0.2665    
   102.0      0.2313    
   103.0      0.1998    
   104.0      0.1720    
   105.0      0.1478    
   106.0      0.1269    
   107.0      0.1092    
   108.0      0.9443E-01
   109.0      0.8225E-01
   110.0      0.7242E-01
   111.0      0.6467E-01
   112.0      0.5871E-01
   113.0      0.5429E-01
   114.0      0.5115E-01
   115.0      0.4906E-01
   116.0      0.4779E-01
   117.0      0.4717E-01
   118.0      0.4700E-01
   119.0      0.4715E-01
   120.0      0.4748E-01
   121.0      0.4787E-01
   122.0      0.4825E-01
   123.0      0.4854E-01
   124.0      0.4868E-01
   125.0      0.4864E-01
   126.0      0.4838E-01
   127.0      0.4790E-01
   128.0      0.4718E-01
   129.0      0.4624E-01
   130.0      0.4507E-01
   131.0      0.4371E-01
   132.0      0.4215E-01
   133.0      0.4044E-01
   134.0      0.3858E-01
   135.0      0.3661E-01
   136.0      0.3456E-01
   137.0      0.3243E-01
   138.0      0.3026E-01
   139.0      0.2808E-01
   140.0      0.2589E-01
   141.0      0.2373E-01
   142.0      0.2161E-01
   143.0      0.1955E-01
   144.0      0.1756E-01
   145.0      0.1566E-01
   146.0      0.1386E-01
   147.0      0.1218E-01
   148.0      0.1062E-01
   149.0      0.9198E-02
   150.0      0.7914E-02
   151.0      0.6776E-02
   152.0      0.5788E-02
   153.0      0.4954E-02
   154.0      0.4276E-02
   155.0      0.3754E-02
   156.0      0.3386E-02
   157.0      0.3171E-02
   158.0      0.3105E-02
   159.0      0.3181E-02
   160.0      0.3393E-02
   161.0      0.3732E-02
   162.0      0.4189E-02
   163.0      0.4750E-02
   164.0      0.5405E-02
   165.0      0.6136E-02
   166.0      0.6931E-02
   167.0      0.7771E-02
   168.0      0.8640E-02
   169.0      0.9521E-02
   170.0      0.1040E-01
   171.0      0.1125E-01
   172.0      0.1206E-01
   173.0      0.1281E-01
   174.0      0.1350E-01
   175.0      0.1410E-01
   176.0      0.1461E-01
   177.0      0.1502E-01
   178.0      0.1532E-01
   179.0      0.1550E-01
   180.0      0.1556E-01
 END
@legend string   1 "Partition=  1 Excit=  2 near/far= 1"
#legend string   0 "Lab energy =   43.0000"
@s1 linestyle   2
#  Theta       sigma       iT11        T20         T21         T22         Kyy for projectile
   3.000       7.710    
   4.000       7.519    
   5.000       7.286    
   6.000       7.021    
   7.000       6.735    
   8.000       6.438    
   9.000       6.143    
   10.00       5.860    
   11.00       5.600    
   12.00       5.373    
   13.00       5.186    
   14.00       5.042    
   15.00       4.945    
   16.00       4.892    
   17.00       4.880    
   18.00       4.903    
   19.00       4.952    
   20.00       5.016    
   21.00       5.085    
   22.00       5.149    
   23.00       5.197    
   24.00       5.221    
   25.00       5.213    
   26.00       5.170    
   27.00       5.089    
   28.00       4.969    
   29.00       4.812    
   30.00       4.621    
   31.00       4.400    
   32.00       4.154    
   33.00       3.889    
   34.00       3.611    
   35.00       3.324    
   36.00       3.036    
   37.00       2.751    
   38.00       2.473    
   39.00       2.209    
   40.00       1.960    
   41.00       1.731    
   42.00       1.524    
   43.00       1.341    
   44.00       1.182    
   45.00       1.049    
   46.00      0.9400    
   47.00      0.8545    
   48.00      0.7906    
   49.00      0.7459    
   50.00      0.7176    
   51.00      0.7029    
   52.00      0.6986    
   53.00      0.7020    
   54.00      0.7101    
   55.00      0.7204    
   56.00      0.7310    
   57.00      0.7401    
   58.00      0.7464    
   59.00      0.7489    
   60.00      0.7470    
   61.00      0.7404    
   62.00      0.7290    
   63.00      0.7128    
   64.00      0.6921    
   65.00      0.6672    
   66.00      0.6384    
   67.00      0.6064    
   68.00      0.5715    
   69.00      0.5345    
   70.00      0.4958    
   71.00      0.4563    
   72.00      0.4165    
   73.00      0.3771    
   74.00      0.3386    
   75.00      0.3018    
   76.00      0.2670    
   77.00      0.2347    
   78.00      0.2050    
   79.00      0.1783    
   80.00      0.1546    
   81.00      0.1338    
   82.00      0.1159    
   83.00      0.1006    
   84.00      0.8782E-01
   85.00      0.7729E-01
   86.00      0.6879E-01
   87.00      0.6207E-01
   88.00      0.5691E-01
   89.00      0.5310E-01
   90.00      0.5045E-01
   91.00      0.4875E-01
   92.00      0.4783E-01
   93.00      0.4752E-01
   94.00      0.4765E-01
   95.00      0.4807E-01
   96.00      0.4863E-01
   97.00      0.4920E-01
   98.00      0.4966E-01
   99.00      0.4992E-01
   100.0      0.4990E-01
   101.0      0.4955E-01
   102.0      0.4887E-01
   103.0      0.4784E-01
   104.0      0.4650E-01
   105.0      0.4487E-01
   106.0      0.4301E-01
   107.0      0.4097E-01
   108.0      0.3879E-01
   109.0      0.3653E-01
   110.0      0.3421E-01
   111.0      0.3187E-01
   112.0      0.2953E-01
   113.0      0.2721E-01
   114.0      0.2493E-01
   115.0      0.2270E-01
   116.0      0.2053E-01
   117.0      0.1844E-01
   118.0      0.1645E-01
   119.0      0.1457E-01
   120.0      0.1283E-01
   121.0      0.1123E-01
   122.0      0.9792E-02
   123.0      0.8519E-02
   124.0      0.7415E-02
   125.0      0.6477E-02
   126.0      0.5695E-02
   127.0      0.5055E-02
   128.0      0.4538E-02
   129.0      0.4126E-02
   130.0      0.3798E-02
   131.0      0.3539E-02
   132.0      0.3335E-02
   133.0      0.3178E-02
   134.0      0.3062E-02
   135.0      0.2987E-02
   136.0      0.2950E-02
   137.0      0.2953E-02
   138.0      0.2994E-02
   139.0      0.3069E-02
   140.0      0.3174E-02
   141.0      0.3299E-02
   142.0      0.3438E-02
   143.0      0.3579E-02
   144.0      0.3713E-02
   145.0      0.3830E-02
   146.0      0.3923E-02
   147.0      0.3983E-02
   148.0      0.4008E-02
   149.0      0.3996E-02
   150.0      0.3947E-02
   151.0      0.3867E-02
   152.0      0.3763E-02
   153.0      0.3642E-02
   154.0      0.3512E-02
   155.0      0.3381E-02
   156.0      0.3254E-02
   157.0      0.3134E-02
   158.0      0.3022E-02
   159.0      0.2916E-02
   160.0      0.2816E-02
   161.0      0.2719E-02
   162.0      0.2625E-02
   163.0      0.2534E-02
   164.0      0.2446E-02
   165.0      0.2362E-02
   166.0      0.2283E-02
   167.0      0.2209E-02
   168.0      0.2139E-02
   169.0      0.2072E-02
   170.0      0.2007E-02
   171.0      0.1945E-02
   172.0      0.1886E-02
   173.0      0.1830E-02
   174.0      0.1779E-02
   175.0      0.1735E-02
   176.0      0.1700E-02
   177.0      0.1672E-02
   178.0      0.1653E-02
   179.0      0.1642E-02
   180.0      0.1639E-02
 END
