# 178 angles,  1 tensor ranks for 0=projectile
@subtitle   "p+O20 1st with BG ;"                                                           
@legend ON
@legend x1 0.2
@legend y1 0.8
@g0 type LOGY
@yaxis ticklabel format power
@xaxis label "Scattering angle (degrees)"
@yaxis label "Cross section (mb/sr)"
@legend string   0 "Partition=  1 Excit=  1 near/far= 1"
#legend string   0 "Lab energy =   43.2700"
@s0 linestyle   1
#  Theta       sigma       iT11        T20         T21         T22         Kyy for projectile
   3.000      0.7881E+05
   4.000      0.2189E+05
   5.000       8505.    
   6.000       4516.    
   7.000       3136.    
   8.000       2589.    
   9.000       2328.    
   10.00       2162.    
   11.00       2024.    
   12.00       1889.    
   13.00       1750.    
   14.00       1607.    
   15.00       1461.    
   16.00       1315.    
   17.00       1172.    
   18.00       1034.    
   19.00       903.0    
   20.00       780.6    
   21.00       667.9    
   22.00       565.4    
   23.00       473.4    
   24.00       392.0    
   25.00       320.8    
   26.00       259.5    
   27.00       207.4    
   28.00       163.8    
   29.00       128.0    
   30.00       98.98    
   31.00       76.05    
   32.00       58.33    
   33.00       45.03    
   34.00       35.41    
   35.00       28.77    
   36.00       24.49    
   37.00       22.03    
   38.00       20.91    
   39.00       20.73    
   40.00       21.16    
   41.00       21.91    
   42.00       22.79    
   43.00       23.62    
   44.00       24.29    
   45.00       24.73    
   46.00       24.90    
   47.00       24.76    
   48.00       24.34    
   49.00       23.65    
   50.00       22.71    
   51.00       21.58    
   52.00       20.28    
   53.00       18.86    
   54.00       17.36    
   55.00       15.82    
   56.00       14.29    
   57.00       12.78    
   58.00       11.32    
   59.00       9.940    
   60.00       8.651    
   61.00       7.466    
   62.00       6.391    
   63.00       5.430    
   64.00       4.583    
   65.00       3.847    
   66.00       3.217    
   67.00       2.685    
   68.00       2.245    
   69.00       1.886    
   70.00       1.601    
   71.00       1.379    
   72.00       1.210    
   73.00       1.087    
   74.00       1.001    
   75.00      0.9435    
   76.00      0.9086    
   77.00      0.8900    
   78.00      0.8823    
   79.00      0.8813    
   80.00      0.8834    
   81.00      0.8856    
   82.00      0.8857    
   83.00      0.8821    
   84.00      0.8739    
   85.00      0.8603    
   86.00      0.8413    
   87.00      0.8168    
   88.00      0.7872    
   89.00      0.7530    
   90.00      0.7150    
   91.00      0.6738    
   92.00      0.6303    
   93.00      0.5852    
   94.00      0.5394    
   95.00      0.4934    
   96.00      0.4481    
   97.00      0.4039    
   98.00      0.3615    
   99.00      0.3212    
   100.0      0.2833    
   101.0      0.2481    
   102.0      0.2157    
   103.0      0.1864    
   104.0      0.1600    
   105.0      0.1366    
   106.0      0.1161    
   107.0      0.9828E-01
   108.0      0.8309E-01
   109.0      0.7032E-01
   110.0      0.5977E-01
   111.0      0.5122E-01
   112.0      0.4445E-01
   113.0      0.3924E-01
   114.0      0.3538E-01
   115.0      0.3267E-01
   116.0      0.3090E-01
   117.0      0.2991E-01
   118.0      0.2951E-01
   119.0      0.2957E-01
   120.0      0.2995E-01
   121.0      0.3053E-01
   122.0      0.3123E-01
   123.0      0.3195E-01
   124.0      0.3263E-01
   125.0      0.3322E-01
   126.0      0.3368E-01
   127.0      0.3397E-01
   128.0      0.3409E-01
   129.0      0.3401E-01
   130.0      0.3374E-01
   131.0      0.3329E-01
   132.0      0.3265E-01
   133.0      0.3184E-01
   134.0      0.3088E-01
   135.0      0.2977E-01
   136.0      0.2855E-01
   137.0      0.2722E-01
   138.0      0.2580E-01
   139.0      0.2432E-01
   140.0      0.2279E-01
   141.0      0.2122E-01
   142.0      0.1963E-01
   143.0      0.1804E-01
   144.0      0.1645E-01
   145.0      0.1490E-01
   146.0      0.1338E-01
   147.0      0.1190E-01
   148.0      0.1049E-01
   149.0      0.9153E-02
   150.0      0.7894E-02
   151.0      0.6725E-02
   152.0      0.5657E-02
   153.0      0.4695E-02
   154.0      0.3849E-02
   155.0      0.3122E-02
   156.0      0.2521E-02
   157.0      0.2048E-02
   158.0      0.1705E-02
   159.0      0.1492E-02
   160.0      0.1408E-02
   161.0      0.1449E-02
   162.0      0.1609E-02
   163.0      0.1882E-02
   164.0      0.2258E-02
   165.0      0.2725E-02
   166.0      0.3271E-02
   167.0      0.3882E-02
   168.0      0.4543E-02
   169.0      0.5237E-02
   170.0      0.5946E-02
   171.0      0.6654E-02
   172.0      0.7344E-02
   173.0      0.7998E-02
   174.0      0.8602E-02
   175.0      0.9139E-02
   176.0      0.9598E-02
   177.0      0.9967E-02
   178.0      0.1024E-01
   179.0      0.1040E-01
   180.0      0.1046E-01
 END
@legend string   1 "Partition=  1 Excit=  2 near/far= 1"
#legend string   0 "Lab energy =   43.2700"
@s1 linestyle   2
#  Theta       sigma       iT11        T20         T21         T22         Kyy for projectile
   3.000       30.32    
   4.000       29.79    
   5.000       29.00    
   6.000       27.97    
   7.000       26.80    
   8.000       25.60    
   9.000       24.46    
   10.00       23.43    
   11.00       22.55    
   12.00       21.85    
   13.00       21.35    
   14.00       21.07    
   15.00       20.99    
   16.00       21.09    
   17.00       21.35    
   18.00       21.72    
   19.00       22.17    
   20.00       22.67    
   21.00       23.18    
   22.00       23.66    
   23.00       24.04    
   24.00       24.29    
   25.00       24.37    
   26.00       24.28    
   27.00       24.01    
   28.00       23.56    
   29.00       22.94    
   30.00       22.14    
   31.00       21.17    
   32.00       20.06    
   33.00       18.84    
   34.00       17.55    
   35.00       16.21    
   36.00       14.86    
   37.00       13.52    
   38.00       12.21    
   39.00       10.95    
   40.00       9.775    
   41.00       8.692    
   42.00       7.716    
   43.00       6.852    
   44.00       6.100    
   45.00       5.462    
   46.00       4.934    
   47.00       4.510    
   48.00       4.181    
   49.00       3.935    
   50.00       3.760    
   51.00       3.645    
   52.00       3.578    
   53.00       3.547    
   54.00       3.542    
   55.00       3.551    
   56.00       3.563    
   57.00       3.570    
   58.00       3.568    
   59.00       3.553    
   60.00       3.521    
   61.00       3.470    
   62.00       3.397    
   63.00       3.302    
   64.00       3.187    
   65.00       3.053    
   66.00       2.904    
   67.00       2.742    
   68.00       2.571    
   69.00       2.393    
   70.00       2.210    
   71.00       2.026    
   72.00       1.844    
   73.00       1.667    
   74.00       1.497    
   75.00       1.336    
   76.00       1.185    
   77.00       1.045    
   78.00      0.9175    
   79.00      0.8023    
   80.00      0.6999    
   81.00      0.6102    
   82.00      0.5324    
   83.00      0.4660    
   84.00      0.4101    
   85.00      0.3641    
   86.00      0.3269    
   87.00      0.2975    
   88.00      0.2749    
   89.00      0.2578    
   90.00      0.2454    
   91.00      0.2368    
   92.00      0.2311    
   93.00      0.2276    
   94.00      0.2255    
   95.00      0.2242    
   96.00      0.2231    
   97.00      0.2220    
   98.00      0.2205    
   99.00      0.2185    
   100.0      0.2155    
   101.0      0.2116    
   102.0      0.2067    
   103.0      0.2009    
   104.0      0.1941    
   105.0      0.1866    
   106.0      0.1783    
   107.0      0.1694    
   108.0      0.1600    
   109.0      0.1502    
   110.0      0.1402    
   111.0      0.1302    
   112.0      0.1203    
   113.0      0.1105    
   114.0      0.1009    
   115.0      0.9174E-01
   116.0      0.8300E-01
   117.0      0.7476E-01
   118.0      0.6706E-01
   119.0      0.5991E-01
   120.0      0.5335E-01
   121.0      0.4739E-01
   122.0      0.4206E-01
   123.0      0.3733E-01
   124.0      0.3317E-01
   125.0      0.2954E-01
   126.0      0.2639E-01
   127.0      0.2371E-01
   128.0      0.2148E-01
   129.0      0.1969E-01
   130.0      0.1828E-01
   131.0      0.1718E-01
   132.0      0.1633E-01
   133.0      0.1569E-01
   134.0      0.1525E-01
   135.0      0.1499E-01
   136.0      0.1489E-01
   137.0      0.1490E-01
   138.0      0.1499E-01
   139.0      0.1510E-01
   140.0      0.1522E-01
   141.0      0.1534E-01
   142.0      0.1546E-01
   143.0      0.1557E-01
   144.0      0.1566E-01
   145.0      0.1568E-01
   146.0      0.1565E-01
   147.0      0.1555E-01
   148.0      0.1539E-01
   149.0      0.1518E-01
   150.0      0.1492E-01
   151.0      0.1459E-01
   152.0      0.1421E-01
   153.0      0.1378E-01
   154.0      0.1331E-01
   155.0      0.1281E-01
   156.0      0.1228E-01
   157.0      0.1172E-01
   158.0      0.1114E-01
   159.0      0.1054E-01
   160.0      0.9954E-02
   161.0      0.9381E-02
   162.0      0.8824E-02
   163.0      0.8280E-02
   164.0      0.7747E-02
   165.0      0.7230E-02
   166.0      0.6742E-02
   167.0      0.6294E-02
   168.0      0.5891E-02
   169.0      0.5528E-02
   170.0      0.5198E-02
   171.0      0.4894E-02
   172.0      0.4617E-02
   173.0      0.4374E-02
   174.0      0.4172E-02
   175.0      0.4010E-02
   176.0      0.3885E-02
   177.0      0.3790E-02
   178.0      0.3721E-02
   179.0      0.3677E-02
   180.0      0.3661E-02
 END
