# 178 angles,  1 tensor ranks for 0=projectile
@subtitle   "20O + d Ex 7.639 3-;"                                                          
@legend ON
@legend x1 0.2
@legend y1 0.8
@g0 type LOGY
@yaxis ticklabel format power
@xaxis label "Scattering angle (degrees)"
@yaxis label "Cross section (mb/sr)"
@legend string   0 "Partition=  1 Excit=  1 near/far= 1"
#legend string   0 "Lab energy =   70.0000"
@s0 linestyle   1
#  Theta       sigma       iT11        T20         T21         T22         Kyy for projectile
   3.000      0.2747E+05
   4.000      0.1164E+05
   5.000       8262.    
   6.000       6772.    
   7.000       5566.    
   8.000       4418.    
   9.000       3349.    
   10.00       2408.    
   11.00       1630.    
   12.00       1027.    
   13.00       591.4    
   14.00       302.8    
   15.00       133.1    
   16.00       52.16    
   17.00       31.21    
   18.00       45.56    
   19.00       75.92    
   20.00       108.6    
   21.00       135.2    
   22.00       151.6    
   23.00       156.9    
   24.00       152.4    
   25.00       140.3    
   26.00       123.7    
   27.00       105.0    
   28.00       86.42    
   29.00       69.54    
   30.00       55.25    
   31.00       43.90    
   32.00       35.42    
   33.00       29.47    
   34.00       25.53    
   35.00       23.06    
   36.00       21.52    
   37.00       20.48    
   38.00       19.61    
   39.00       18.70    
   40.00       17.62    
   41.00       16.33    
   42.00       14.86    
   43.00       13.25    
   44.00       11.59    
   45.00       9.946    
   46.00       8.390    
   47.00       6.974    
   48.00       5.731    
   49.00       4.678    
   50.00       3.817    
   51.00       3.135    
   52.00       2.614    
   53.00       2.227    
   54.00       1.946    
   55.00       1.746    
   56.00       1.602    
   57.00       1.493    
   58.00       1.403    
   59.00       1.321    
   60.00       1.239    
   61.00       1.153    
   62.00       1.061    
   63.00      0.9638    
   64.00      0.8644    
   65.00      0.7651    
   66.00      0.6687    
   67.00      0.5780    
   68.00      0.4951    
   69.00      0.4214    
   70.00      0.3576    
   71.00      0.3040    
   72.00      0.2600    
   73.00      0.2248    
   74.00      0.1970    
   75.00      0.1755    
   76.00      0.1588    
   77.00      0.1456    
   78.00      0.1348    
   79.00      0.1254    
   80.00      0.1168    
   81.00      0.1084    
   82.00      0.9994E-01
   83.00      0.9130E-01
   84.00      0.8249E-01
   85.00      0.7363E-01
   86.00      0.6489E-01
   87.00      0.5646E-01
   88.00      0.4852E-01
   89.00      0.4124E-01
   90.00      0.3473E-01
   91.00      0.2907E-01
   92.00      0.2428E-01
   93.00      0.2035E-01
   94.00      0.1720E-01
   95.00      0.1476E-01
   96.00      0.1292E-01
   97.00      0.1157E-01
   98.00      0.1059E-01
   99.00      0.9890E-02
   100.0      0.9364E-02
   101.0      0.8936E-02
   102.0      0.8546E-02
   103.0      0.8151E-02
   104.0      0.7724E-02
   105.0      0.7250E-02
   106.0      0.6729E-02
   107.0      0.6167E-02
   108.0      0.5577E-02
   109.0      0.4975E-02
   110.0      0.4376E-02
   111.0      0.3799E-02
   112.0      0.3255E-02
   113.0      0.2756E-02
   114.0      0.2310E-02
   115.0      0.1920E-02
   116.0      0.1588E-02
   117.0      0.1311E-02
   118.0      0.1087E-02
   119.0      0.9099E-03
   120.0      0.7731E-03
   121.0      0.6701E-03
   122.0      0.5944E-03
   123.0      0.5395E-03
   124.0      0.5000E-03
   125.0      0.4710E-03
   126.0      0.4485E-03
   127.0      0.4295E-03
   128.0      0.4118E-03
   129.0      0.3938E-03
   130.0      0.3746E-03
   131.0      0.3538E-03
   132.0      0.3314E-03
   133.0      0.3078E-03
   134.0      0.2832E-03
   135.0      0.2583E-03
   136.0      0.2335E-03
   137.0      0.2094E-03
   138.0      0.1864E-03
   139.0      0.1650E-03
   140.0      0.1454E-03
   141.0      0.1279E-03
   142.0      0.1125E-03
   143.0      0.9934E-04
   144.0      0.8840E-04
   145.0      0.7963E-04
   146.0      0.7291E-04
   147.0      0.6811E-04
   148.0      0.6510E-04
   149.0      0.6371E-04
   150.0      0.6377E-04
   151.0      0.6513E-04
   152.0      0.6760E-04
   153.0      0.7102E-04
   154.0      0.7521E-04
   155.0      0.7997E-04
   156.0      0.8510E-04
   157.0      0.9039E-04
   158.0      0.9559E-04
   159.0      0.1005E-03
   160.0      0.1048E-03
   161.0      0.1083E-03
   162.0      0.1108E-03
   163.0      0.1120E-03
   164.0      0.1119E-03
   165.0      0.1102E-03
   166.0      0.1070E-03
   167.0      0.1023E-03
   168.0      0.9609E-04
   169.0      0.8863E-04
   170.0      0.8012E-04
   171.0      0.7086E-04
   172.0      0.6117E-04
   173.0      0.5141E-04
   174.0      0.4197E-04
   175.0      0.3323E-04
   176.0      0.2552E-04
   177.0      0.1917E-04
   178.0      0.1444E-04
   179.0      0.1152E-04
   180.0      0.1053E-04
 END
@legend string   1 "Partition=  1 Excit=  2 near/far= 1"
#legend string   0 "Lab energy =   70.0000"
@s1 linestyle   2
#  Theta       sigma       iT11        T20         T21         T22         Kyy for projectile
   3.000       13.27    
   4.000       16.02    
   5.000       18.93    
   6.000       21.72    
   7.000       24.21    
   8.000       26.35    
   9.000       28.23    
   10.00       30.02    
   11.00       31.89    
   12.00       33.96    
   13.00       36.24    
   14.00       38.62    
   15.00       40.88    
   16.00       42.74    
   17.00       43.91    
   18.00       44.15    
   19.00       43.31    
   20.00       41.37    
   21.00       38.43    
   22.00       34.71    
   23.00       30.50    
   24.00       26.13    
   25.00       21.92    
   26.00       18.14    
   27.00       14.98    
   28.00       12.58    
   29.00       10.94    
   30.00       10.02    
   31.00       9.691    
   32.00       9.805    
   33.00       10.19    
   34.00       10.67    
   35.00       11.10    
   36.00       11.39    
   37.00       11.45    
   38.00       11.27    
   39.00       10.85    
   40.00       10.22    
   41.00       9.442    
   42.00       8.572    
   43.00       7.672    
   44.00       6.799    
   45.00       5.993    
   46.00       5.286    
   47.00       4.691    
   48.00       4.210    
   49.00       3.835    
   50.00       3.548    
   51.00       3.329    
   52.00       3.157    
   53.00       3.010    
   54.00       2.871    
   55.00       2.728    
   56.00       2.572    
   57.00       2.399    
   58.00       2.210    
   59.00       2.009    
   60.00       1.800    
   61.00       1.590    
   62.00       1.386    
   63.00       1.194    
   64.00       1.018    
   65.00      0.8625    
   66.00      0.7280    
   67.00      0.6153    
   68.00      0.5233    
   69.00      0.4500    
   70.00      0.3929    
   71.00      0.3489    
   72.00      0.3151    
   73.00      0.2887    
   74.00      0.2673    
   75.00      0.2489    
   76.00      0.2320    
   77.00      0.2155    
   78.00      0.1990    
   79.00      0.1822    
   80.00      0.1651    
   81.00      0.1481    
   82.00      0.1314    
   83.00      0.1155    
   84.00      0.1006    
   85.00      0.8714E-01
   86.00      0.7517E-01
   87.00      0.6482E-01
   88.00      0.5607E-01
   89.00      0.4883E-01
   90.00      0.4294E-01
   91.00      0.3822E-01
   92.00      0.3446E-01
   93.00      0.3146E-01
   94.00      0.2901E-01
   95.00      0.2694E-01
   96.00      0.2510E-01
   97.00      0.2339E-01
   98.00      0.2174E-01
   99.00      0.2011E-01
   100.0      0.1846E-01
   101.0      0.1682E-01
   102.0      0.1519E-01
   103.0      0.1361E-01
   104.0      0.1210E-01
   105.0      0.1069E-01
   106.0      0.9400E-02
   107.0      0.8252E-02
   108.0      0.7251E-02
   109.0      0.6401E-02
   110.0      0.5695E-02
   111.0      0.5122E-02
   112.0      0.4667E-02
   113.0      0.4311E-02
   114.0      0.4036E-02
   115.0      0.3824E-02
   116.0      0.3654E-02
   117.0      0.3510E-02
   118.0      0.3376E-02
   119.0      0.3243E-02
   120.0      0.3104E-02
   121.0      0.2955E-02
   122.0      0.2793E-02
   123.0      0.2619E-02
   124.0      0.2434E-02
   125.0      0.2243E-02
   126.0      0.2048E-02
   127.0      0.1853E-02
   128.0      0.1663E-02
   129.0      0.1480E-02
   130.0      0.1308E-02
   131.0      0.1151E-02
   132.0      0.1010E-02
   133.0      0.8868E-03
   134.0      0.7809E-03
   135.0      0.6918E-03
   136.0      0.6184E-03
   137.0      0.5593E-03
   138.0      0.5125E-03
   139.0      0.4758E-03
   140.0      0.4472E-03
   141.0      0.4252E-03
   142.0      0.4089E-03
   143.0      0.3971E-03
   144.0      0.3884E-03
   145.0      0.3808E-03
   146.0      0.3725E-03
   147.0      0.3624E-03
   148.0      0.3504E-03
   149.0      0.3373E-03
   150.0      0.3237E-03
   151.0      0.3099E-03
   152.0      0.2957E-03
   153.0      0.2810E-03
   154.0      0.2655E-03
   155.0      0.2497E-03
   156.0      0.2338E-03
   157.0      0.2185E-03
   158.0      0.2039E-03
   159.0      0.1903E-03
   160.0      0.1780E-03
   161.0      0.1672E-03
   162.0      0.1577E-03
   163.0      0.1495E-03
   164.0      0.1422E-03
   165.0      0.1358E-03
   166.0      0.1302E-03
   167.0      0.1254E-03
   168.0      0.1216E-03
   169.0      0.1187E-03
   170.0      0.1166E-03
   171.0      0.1153E-03
   172.0      0.1146E-03
   173.0      0.1146E-03
   174.0      0.1150E-03
   175.0      0.1152E-03
   176.0      0.1150E-03
   177.0      0.1142E-03
   178.0      0.1130E-03
   179.0      0.1118E-03
   180.0      0.1114E-03
 END
