# 178 angles,  1 tensor ranks for 0=projectile
@subtitle   "20O + d Ex 11.722 4+;"                                                         
@legend ON
@legend x1 0.2
@legend y1 0.8
@g0 type LOGY
@yaxis ticklabel format power
@xaxis label "Scattering angle (degrees)"
@yaxis label "Cross section (mb/sr)"
@legend string   0 "Partition=  1 Excit=  1 near/far= 1"
#legend string   0 "Lab energy =   70.0000"
@s0 linestyle   1
#  Theta       sigma       iT11        T20         T21         T22         Kyy for projectile
   3.000      0.2740E+05
   4.000      0.1165E+05
   5.000       8300.    
   6.000       6815.    
   7.000       5606.    
   8.000       4451.    
   9.000       3374.    
   10.00       2427.    
   11.00       1643.    
   12.00       1036.    
   13.00       598.3    
   14.00       308.4    
   15.00       138.3    
   16.00       57.31    
   17.00       36.39    
   18.00       50.63    
   19.00       80.55    
   20.00       112.5    
   21.00       138.0    
   22.00       153.1    
   23.00       157.1    
   24.00       151.2    
   25.00       138.1    
   26.00       120.7    
   27.00       101.5    
   28.00       82.83    
   29.00       66.16    
   30.00       52.34    
   31.00       41.66    
   32.00       33.98    
   33.00       28.86    
   34.00       25.74    
   35.00       24.00    
   36.00       23.09    
   37.00       22.54    
   38.00       22.03    
   39.00       21.35    
   40.00       20.37    
   41.00       19.10    
   42.00       17.56    
   43.00       15.84    
   44.00       14.03    
   45.00       12.22    
   46.00       10.49    
   47.00       8.898    
   48.00       7.486    
   49.00       6.272    
   50.00       5.257    
   51.00       4.429    
   52.00       3.768    
   53.00       3.246    
   54.00       2.837    
   55.00       2.514    
   56.00       2.253    
   57.00       2.034    
   58.00       1.843    
   59.00       1.669    
   60.00       1.505    
   61.00       1.348    
   62.00       1.197    
   63.00       1.052    
   64.00      0.9152    
   65.00      0.7879    
   66.00      0.6719    
   67.00      0.5686    
   68.00      0.4785    
   69.00      0.4020    
   70.00      0.3383    
   71.00      0.2867    
   72.00      0.2457    
   73.00      0.2137    
   74.00      0.1892    
   75.00      0.1704    
   76.00      0.1559    
   77.00      0.1445    
   78.00      0.1349    
   79.00      0.1264    
   80.00      0.1184    
   81.00      0.1105    
   82.00      0.1026    
   83.00      0.9447E-01
   84.00      0.8630E-01
   85.00      0.7816E-01
   86.00      0.7021E-01
   87.00      0.6260E-01
   88.00      0.5545E-01
   89.00      0.4888E-01
   90.00      0.4296E-01
   91.00      0.3772E-01
   92.00      0.3315E-01
   93.00      0.2924E-01
   94.00      0.2591E-01
   95.00      0.2310E-01
   96.00      0.2073E-01
   97.00      0.1873E-01
   98.00      0.1701E-01
   99.00      0.1552E-01
   100.0      0.1418E-01
   101.0      0.1296E-01
   102.0      0.1183E-01
   103.0      0.1075E-01
   104.0      0.9722E-02
   105.0      0.8734E-02
   106.0      0.7787E-02
   107.0      0.6886E-02
   108.0      0.6038E-02
   109.0      0.5249E-02
   110.0      0.4526E-02
   111.0      0.3874E-02
   112.0      0.3296E-02
   113.0      0.2793E-02
   114.0      0.2364E-02
   115.0      0.2005E-02
   116.0      0.1711E-02
   117.0      0.1477E-02
   118.0      0.1294E-02
   119.0      0.1155E-02
   120.0      0.1052E-02
   121.0      0.9780E-03
   122.0      0.9257E-03
   123.0      0.8888E-03
   124.0      0.8621E-03
   125.0      0.8411E-03
   126.0      0.8225E-03
   127.0      0.8037E-03
   128.0      0.7832E-03
   129.0      0.7600E-03
   130.0      0.7338E-03
   131.0      0.7049E-03
   132.0      0.6739E-03
   133.0      0.6413E-03
   134.0      0.6082E-03
   135.0      0.5753E-03
   136.0      0.5433E-03
   137.0      0.5129E-03
   138.0      0.4845E-03
   139.0      0.4583E-03
   140.0      0.4344E-03
   141.0      0.4126E-03
   142.0      0.3927E-03
   143.0      0.3742E-03
   144.0      0.3568E-03
   145.0      0.3399E-03
   146.0      0.3232E-03
   147.0      0.3064E-03
   148.0      0.2891E-03
   149.0      0.2712E-03
   150.0      0.2526E-03
   151.0      0.2336E-03
   152.0      0.2142E-03
   153.0      0.1949E-03
   154.0      0.1760E-03
   155.0      0.1581E-03
   156.0      0.1414E-03
   157.0      0.1267E-03
   158.0      0.1143E-03
   159.0      0.1046E-03
   160.0      0.9792E-04
   161.0      0.9459E-04
   162.0      0.9474E-04
   163.0      0.9844E-04
   164.0      0.1057E-03
   165.0      0.1162E-03
   166.0      0.1300E-03
   167.0      0.1465E-03
   168.0      0.1654E-03
   169.0      0.1863E-03
   170.0      0.2085E-03
   171.0      0.2314E-03
   172.0      0.2543E-03
   173.0      0.2767E-03
   174.0      0.2978E-03
   175.0      0.3169E-03
   176.0      0.3335E-03
   177.0      0.3470E-03
   178.0      0.3570E-03
   179.0      0.3631E-03
   180.0      0.3652E-03
 END
@legend string   1 "Partition=  1 Excit=  2 near/far= 1"
#legend string   0 "Lab energy =   70.0000"
@s1 linestyle   2
#  Theta       sigma       iT11        T20         T21         T22         Kyy for projectile
   3.000       12.05    
   4.000       11.83    
   5.000       11.61    
   6.000       11.46    
   7.000       11.38    
   8.000       11.43    
   9.000       11.61    
   10.00       11.95    
   11.00       12.48    
   12.00       13.20    
   13.00       14.15    
   14.00       15.32    
   15.00       16.70    
   16.00       18.25    
   17.00       19.90    
   18.00       21.57    
   19.00       23.14    
   20.00       24.49    
   21.00       25.51    
   22.00       26.11    
   23.00       26.20    
   24.00       25.78    
   25.00       24.84    
   26.00       23.45    
   27.00       21.70    
   28.00       19.69    
   29.00       17.55    
   30.00       15.40    
   31.00       13.35    
   32.00       11.50    
   33.00       9.914    
   34.00       8.620    
   35.00       7.629    
   36.00       6.924    
   37.00       6.467    
   38.00       6.210    
   39.00       6.094    
   40.00       6.064    
   41.00       6.066    
   42.00       6.059    
   43.00       6.009    
   44.00       5.897    
   45.00       5.713    
   46.00       5.458    
   47.00       5.141    
   48.00       4.775    
   49.00       4.379    
   50.00       3.971    
   51.00       3.566    
   52.00       3.179    
   53.00       2.821    
   54.00       2.499    
   55.00       2.217    
   56.00       1.975    
   57.00       1.772    
   58.00       1.601    
   59.00       1.460    
   60.00       1.341    
   61.00       1.239    
   62.00       1.149    
   63.00       1.067    
   64.00      0.9896    
   65.00      0.9150    
   66.00      0.8417    
   67.00      0.7694    
   68.00      0.6982    
   69.00      0.6290    
   70.00      0.5624    
   71.00      0.4994    
   72.00      0.4409    
   73.00      0.3874    
   74.00      0.3396    
   75.00      0.2974    
   76.00      0.2608    
   77.00      0.2296    
   78.00      0.2033    
   79.00      0.1813    
   80.00      0.1629    
   81.00      0.1476    
   82.00      0.1347    
   83.00      0.1236    
   84.00      0.1139    
   85.00      0.1051    
   86.00      0.9689E-01
   87.00      0.8915E-01
   88.00      0.8172E-01
   89.00      0.7452E-01
   90.00      0.6756E-01
   91.00      0.6085E-01
   92.00      0.5443E-01
   93.00      0.4837E-01
   94.00      0.4272E-01
   95.00      0.3753E-01
   96.00      0.3282E-01
   97.00      0.2862E-01
   98.00      0.2492E-01
   99.00      0.2171E-01
   100.0      0.1895E-01
   101.0      0.1662E-01
   102.0      0.1467E-01
   103.0      0.1304E-01
   104.0      0.1169E-01
   105.0      0.1056E-01
   106.0      0.9622E-02
   107.0      0.8825E-02
   108.0      0.8138E-02
   109.0      0.7532E-02
   110.0      0.6988E-02
   111.0      0.6487E-02
   112.0      0.6020E-02
   113.0      0.5580E-02
   114.0      0.5162E-02
   115.0      0.4764E-02
   116.0      0.4388E-02
   117.0      0.4034E-02
   118.0      0.3703E-02
   119.0      0.3396E-02
   120.0      0.3115E-02
   121.0      0.2859E-02
   122.0      0.2628E-02
   123.0      0.2422E-02
   124.0      0.2238E-02
   125.0      0.2074E-02
   126.0      0.1928E-02
   127.0      0.1799E-02
   128.0      0.1682E-02
   129.0      0.1576E-02
   130.0      0.1479E-02
   131.0      0.1389E-02
   132.0      0.1304E-02
   133.0      0.1223E-02
   134.0      0.1145E-02
   135.0      0.1069E-02
   136.0      0.9948E-03
   137.0      0.9227E-03
   138.0      0.8525E-03
   139.0      0.7846E-03
   140.0      0.7193E-03
   141.0      0.6570E-03
   142.0      0.5983E-03
   143.0      0.5437E-03
   144.0      0.4936E-03
   145.0      0.4483E-03
   146.0      0.4083E-03
   147.0      0.3737E-03
   148.0      0.3446E-03
   149.0      0.3210E-03
   150.0      0.3026E-03
   151.0      0.2893E-03
   152.0      0.2806E-03
   153.0      0.2760E-03
   154.0      0.2747E-03
   155.0      0.2763E-03
   156.0      0.2799E-03
   157.0      0.2848E-03
   158.0      0.2903E-03
   159.0      0.2958E-03
   160.0      0.3007E-03
   161.0      0.3046E-03
   162.0      0.3071E-03
   163.0      0.3079E-03
   164.0      0.3071E-03
   165.0      0.3045E-03
   166.0      0.3004E-03
   167.0      0.2949E-03
   168.0      0.2884E-03
   169.0      0.2811E-03
   170.0      0.2733E-03
   171.0      0.2655E-03
   172.0      0.2577E-03
   173.0      0.2504E-03
   174.0      0.2438E-03
   175.0      0.2379E-03
   176.0      0.2330E-03
   177.0      0.2291E-03
   178.0      0.2263E-03
   179.0      0.2246E-03
   180.0      0.2241E-03
 END
