# 178 angles,  1 tensor ranks for 0=projectile
@subtitle   "20O + d Ex 7.639 3-;"                                                          
@legend ON
@legend x1 0.2
@legend y1 0.8
@g0 type LOGY
@yaxis ticklabel format power
@xaxis label "Scattering angle (degrees)"
@yaxis label "Cross section (mb/sr)"
@legend string   0 "Partition=  1 Excit=  1 near/far= 1"
#legend string   0 "Lab energy =   70.0000"
@s0 linestyle   1
#  Theta       sigma       iT11        T20         T21         T22         Kyy for projectile
   3.000      0.2748E+05
   4.000      0.1165E+05
   5.000       8264.    
   6.000       6773.    
   7.000       5566.    
   8.000       4418.    
   9.000       3349.    
   10.00       2408.    
   11.00       1630.    
   12.00       1027.    
   13.00       591.6    
   14.00       302.8    
   15.00       133.0    
   16.00       51.96    
   17.00       30.90    
   18.00       45.16    
   19.00       75.45    
   20.00       108.1    
   21.00       134.7    
   22.00       151.1    
   23.00       156.4    
   24.00       151.9    
   25.00       139.9    
   26.00       123.3    
   27.00       104.6    
   28.00       86.09    
   29.00       69.24    
   30.00       54.98    
   31.00       43.65    
   32.00       35.19    
   33.00       29.25    
   34.00       25.32    
   35.00       22.85    
   36.00       21.32    
   37.00       20.30    
   38.00       19.44    
   39.00       18.54    
   40.00       17.47    
   41.00       16.19    
   42.00       14.73    
   43.00       13.14    
   44.00       11.49    
   45.00       9.857    
   46.00       8.312    
   47.00       6.905    
   48.00       5.670    
   49.00       4.625    
   50.00       3.771    
   51.00       3.095    
   52.00       2.579    
   53.00       2.196    
   54.00       1.919    
   55.00       1.723    
   56.00       1.581    
   57.00       1.475    
   58.00       1.388    
   59.00       1.308    
   60.00       1.227    
   61.00       1.142    
   62.00       1.052    
   63.00      0.9560    
   64.00      0.8577    
   65.00      0.7593    
   66.00      0.6638    
   67.00      0.5737    
   68.00      0.4913    
   69.00      0.4181    
   70.00      0.3547    
   71.00      0.3014    
   72.00      0.2576    
   73.00      0.2226    
   74.00      0.1950    
   75.00      0.1736    
   76.00      0.1570    
   77.00      0.1439    
   78.00      0.1332    
   79.00      0.1240    
   80.00      0.1155    
   81.00      0.1073    
   82.00      0.9893E-01
   83.00      0.9042E-01
   84.00      0.8175E-01
   85.00      0.7301E-01
   86.00      0.6438E-01
   87.00      0.5605E-01
   88.00      0.4819E-01
   89.00      0.4098E-01
   90.00      0.3452E-01
   91.00      0.2889E-01
   92.00      0.2412E-01
   93.00      0.2019E-01
   94.00      0.1704E-01
   95.00      0.1460E-01
   96.00      0.1275E-01
   97.00      0.1139E-01
   98.00      0.1040E-01
   99.00      0.9691E-02
   100.0      0.9162E-02
   101.0      0.8735E-02
   102.0      0.8352E-02
   103.0      0.7968E-02
   104.0      0.7555E-02
   105.0      0.7098E-02
   106.0      0.6596E-02
   107.0      0.6055E-02
   108.0      0.5485E-02
   109.0      0.4902E-02
   110.0      0.4321E-02
   111.0      0.3759E-02
   112.0      0.3228E-02
   113.0      0.2740E-02
   114.0      0.2301E-02
   115.0      0.1916E-02
   116.0      0.1587E-02
   117.0      0.1311E-02
   118.0      0.1087E-02
   119.0      0.9075E-03
   120.0      0.7683E-03
   121.0      0.6625E-03
   122.0      0.5839E-03
   123.0      0.5263E-03
   124.0      0.4845E-03
   125.0      0.4536E-03
   126.0      0.4299E-03
   127.0      0.4102E-03
   128.0      0.3924E-03
   129.0      0.3748E-03
   130.0      0.3564E-03
   131.0      0.3369E-03
   132.0      0.3160E-03
   133.0      0.2940E-03
   134.0      0.2712E-03
   135.0      0.2480E-03
   136.0      0.2249E-03
   137.0      0.2023E-03
   138.0      0.1808E-03
   139.0      0.1606E-03
   140.0      0.1420E-03
   141.0      0.1253E-03
   142.0      0.1105E-03
   143.0      0.9770E-04
   144.0      0.8695E-04
   145.0      0.7817E-04
   146.0      0.7129E-04
   147.0      0.6620E-04
   148.0      0.6278E-04
   149.0      0.6090E-04
   150.0      0.6041E-04
   151.0      0.6119E-04
   152.0      0.6310E-04
   153.0      0.6599E-04
   154.0      0.6971E-04
   155.0      0.7408E-04
   156.0      0.7893E-04
   157.0      0.8406E-04
   158.0      0.8922E-04
   159.0      0.9419E-04
   160.0      0.9872E-04
   161.0      0.1025E-03
   162.0      0.1054E-03
   163.0      0.1071E-03
   164.0      0.1075E-03
   165.0      0.1064E-03
   166.0      0.1037E-03
   167.0      0.9952E-04
   168.0      0.9382E-04
   169.0      0.8678E-04
   170.0      0.7863E-04
   171.0      0.6965E-04
   172.0      0.6017E-04
   173.0      0.5057E-04
   174.0      0.4122E-04
   175.0      0.3252E-04
   176.0      0.2482E-04
   177.0      0.1847E-04
   178.0      0.1372E-04
   179.0      0.1079E-04
   180.0      0.9799E-05
 END
@legend string   1 "Partition=  1 Excit=  2 near/far= 1"
#legend string   0 "Lab energy =   70.0000"
@s1 linestyle   2
#  Theta       sigma       iT11        T20         T21         T22         Kyy for projectile
   3.000       13.54    
   4.000       16.39    
   5.000       19.37    
   6.000       22.18    
   7.000       24.67    
   8.000       26.82    
   9.000       28.71    
   10.00       30.53    
   11.00       32.45    
   12.00       34.56    
   13.00       36.88    
   14.00       39.28    
   15.00       41.55    
   16.00       43.41    
   17.00       44.55    
   18.00       44.76    
   19.00       43.87    
   20.00       41.88    
   21.00       38.88    
   22.00       35.11    
   23.00       30.84    
   24.00       26.42    
   25.00       22.16    
   26.00       18.33    
   27.00       15.15    
   28.00       12.73    
   29.00       11.08    
   30.00       10.15    
   31.00       9.823    
   32.00       9.937    
   33.00       10.32    
   34.00       10.80    
   35.00       11.24    
   36.00       11.52    
   37.00       11.59    
   38.00       11.40    
   39.00       10.98    
   40.00       10.34    
   41.00       9.558    
   42.00       8.680    
   43.00       7.773    
   44.00       6.891    
   45.00       6.079    
   46.00       5.365    
   47.00       4.764    
   48.00       4.278    
   49.00       3.898    
   50.00       3.607    
   51.00       3.384    
   52.00       3.209    
   53.00       3.059    
   54.00       2.917    
   55.00       2.771    
   56.00       2.612    
   57.00       2.437    
   58.00       2.245    
   59.00       2.041    
   60.00       1.829    
   61.00       1.617    
   62.00       1.410    
   63.00       1.216    
   64.00       1.038    
   65.00      0.8795    
   66.00      0.7430    
   67.00      0.6285    
   68.00      0.5349    
   69.00      0.4602    
   70.00      0.4018    
   71.00      0.3568    
   72.00      0.3221    
   73.00      0.2950    
   74.00      0.2729    
   75.00      0.2539    
   76.00      0.2365    
   77.00      0.2197    
   78.00      0.2028    
   79.00      0.1856    
   80.00      0.1683    
   81.00      0.1510    
   82.00      0.1341    
   83.00      0.1180    
   84.00      0.1029    
   85.00      0.8919E-01
   86.00      0.7700E-01
   87.00      0.6644E-01
   88.00      0.5748E-01
   89.00      0.5004E-01
   90.00      0.4398E-01
   91.00      0.3911E-01
   92.00      0.3521E-01
   93.00      0.3208E-01
   94.00      0.2952E-01
   95.00      0.2736E-01
   96.00      0.2545E-01
   97.00      0.2368E-01
   98.00      0.2199E-01
   99.00      0.2032E-01
   100.0      0.1865E-01
   101.0      0.1700E-01
   102.0      0.1536E-01
   103.0      0.1377E-01
   104.0      0.1226E-01
   105.0      0.1084E-01
   106.0      0.9551E-02
   107.0      0.8395E-02
   108.0      0.7385E-02
   109.0      0.6523E-02
   110.0      0.5803E-02
   111.0      0.5215E-02
   112.0      0.4744E-02
   113.0      0.4372E-02
   114.0      0.4080E-02
   115.0      0.3850E-02
   116.0      0.3663E-02
   117.0      0.3504E-02
   118.0      0.3359E-02
   119.0      0.3218E-02
   120.0      0.3072E-02
   121.0      0.2919E-02
   122.0      0.2755E-02
   123.0      0.2581E-02
   124.0      0.2397E-02
   125.0      0.2207E-02
   126.0      0.2015E-02
   127.0      0.1823E-02
   128.0      0.1637E-02
   129.0      0.1459E-02
   130.0      0.1292E-02
   131.0      0.1139E-02
   132.0      0.1001E-02
   133.0      0.8795E-03
   134.0      0.7746E-03
   135.0      0.6857E-03
   136.0      0.6119E-03
   137.0      0.5519E-03
   138.0      0.5040E-03
   139.0      0.4665E-03
   140.0      0.4373E-03
   141.0      0.4149E-03
   142.0      0.3976E-03
   143.0      0.3840E-03
   144.0      0.3726E-03
   145.0      0.3625E-03
   146.0      0.3525E-03
   147.0      0.3421E-03
   148.0      0.3308E-03
   149.0      0.3187E-03
   150.0      0.3057E-03
   151.0      0.2919E-03
   152.0      0.2776E-03
   153.0      0.2628E-03
   154.0      0.2479E-03
   155.0      0.2329E-03
   156.0      0.2183E-03
   157.0      0.2043E-03
   158.0      0.1910E-03
   159.0      0.1785E-03
   160.0      0.1671E-03
   161.0      0.1568E-03
   162.0      0.1475E-03
   163.0      0.1393E-03
   164.0      0.1321E-03
   165.0      0.1258E-03
   166.0      0.1203E-03
   167.0      0.1156E-03
   168.0      0.1117E-03
   169.0      0.1085E-03
   170.0      0.1059E-03
   171.0      0.1038E-03
   172.0      0.1022E-03
   173.0      0.1010E-03
   174.0      0.1002E-03
   175.0      0.9957E-04
   176.0      0.9909E-04
   177.0      0.9868E-04
   178.0      0.9834E-04
   179.0      0.9810E-04
   180.0      0.9802E-04
 END
