# 178 angles,  1 tensor ranks for 0=projectile
@subtitle   "20O + d Ex 11.722 2+;"                                                         
@legend ON
@legend x1 0.2
@legend y1 0.8
@g0 type LOGY
@yaxis ticklabel format power
@xaxis label "Scattering angle (degrees)"
@yaxis label "Cross section (mb/sr)"
@legend string   0 "Partition=  1 Excit=  1 near/far= 1"
#legend string   0 "Lab energy =   70.0000"
@s0 linestyle   1
#  Theta       sigma       iT11        T20         T21         T22         Kyy for projectile
   3.000      0.2802E+05
   4.000      0.1192E+05
   5.000       8417.    
   6.000       6866.    
   7.000       5629.    
   8.000       4465.    
   9.000       3388.    
   10.00       2443.    
   11.00       1662.    
   12.00       1056.    
   13.00       616.4    
   14.00       322.7    
   15.00       147.2    
   16.00       59.96    
   17.00       32.63    
   18.00       40.93    
   19.00       65.88    
   20.00       94.09    
   21.00       117.3    
   22.00       131.4    
   23.00       135.5    
   24.00       130.7    
   25.00       119.3    
   26.00       103.9    
   27.00       87.02    
   28.00       70.51    
   29.00       55.81    
   30.00       43.70    
   31.00       34.42    
   32.00       27.84    
   33.00       23.57    
   34.00       21.08    
   35.00       19.82    
   36.00       19.28    
   37.00       19.06    
   38.00       18.84    
   39.00       18.44    
   40.00       17.76    
   41.00       16.78    
   42.00       15.54    
   43.00       14.11    
   44.00       12.58    
   45.00       11.01    
   46.00       9.500    
   47.00       8.093    
   48.00       6.831    
   49.00       5.734    
   50.00       4.809    
   51.00       4.049    
   52.00       3.438    
   53.00       2.955    
   54.00       2.579    
   55.00       2.285    
   56.00       2.053    
   57.00       1.866    
   58.00       1.708    
   59.00       1.569    
   60.00       1.441    
   61.00       1.319    
   62.00       1.200    
   63.00       1.085    
   64.00      0.9727    
   65.00      0.8652    
   66.00      0.7634    
   67.00      0.6689    
   68.00      0.5826    
   69.00      0.5053    
   70.00      0.4373    
   71.00      0.3785    
   72.00      0.3285    
   73.00      0.2866    
   74.00      0.2519    
   75.00      0.2233    
   76.00      0.1998    
   77.00      0.1804    
   78.00      0.1642    
   79.00      0.1503    
   80.00      0.1382    
   81.00      0.1272    
   82.00      0.1170    
   83.00      0.1074    
   84.00      0.9819E-01
   85.00      0.8930E-01
   86.00      0.8076E-01
   87.00      0.7260E-01
   88.00      0.6489E-01
   89.00      0.5771E-01
   90.00      0.5111E-01
   91.00      0.4514E-01
   92.00      0.3983E-01
   93.00      0.3517E-01
   94.00      0.3115E-01
   95.00      0.2773E-01
   96.00      0.2484E-01
   97.00      0.2243E-01
   98.00      0.2041E-01
   99.00      0.1872E-01
   100.0      0.1728E-01
   101.0      0.1603E-01
   102.0      0.1491E-01
   103.0      0.1388E-01
   104.0      0.1291E-01
   105.0      0.1197E-01
   106.0      0.1104E-01
   107.0      0.1014E-01
   108.0      0.9250E-02
   109.0      0.8386E-02
   110.0      0.7555E-02
   111.0      0.6768E-02
   112.0      0.6035E-02
   113.0      0.5366E-02
   114.0      0.4767E-02
   115.0      0.4241E-02
   116.0      0.3790E-02
   117.0      0.3411E-02
   118.0      0.3100E-02
   119.0      0.2849E-02
   120.0      0.2651E-02
   121.0      0.2497E-02
   122.0      0.2376E-02
   123.0      0.2279E-02
   124.0      0.2198E-02
   125.0      0.2125E-02
   126.0      0.2053E-02
   127.0      0.1977E-02
   128.0      0.1895E-02
   129.0      0.1804E-02
   130.0      0.1704E-02
   131.0      0.1594E-02
   132.0      0.1478E-02
   133.0      0.1357E-02
   134.0      0.1233E-02
   135.0      0.1110E-02
   136.0      0.9907E-03
   137.0      0.8768E-03
   138.0      0.7707E-03
   139.0      0.6742E-03
   140.0      0.5884E-03
   141.0      0.5137E-03
   142.0      0.4503E-03
   143.0      0.3977E-03
   144.0      0.3552E-03
   145.0      0.3218E-03
   146.0      0.2964E-03
   147.0      0.2779E-03
   148.0      0.2649E-03
   149.0      0.2566E-03
   150.0      0.2520E-03
   151.0      0.2501E-03
   152.0      0.2505E-03
   153.0      0.2523E-03
   154.0      0.2552E-03
   155.0      0.2586E-03
   156.0      0.2620E-03
   157.0      0.2650E-03
   158.0      0.2671E-03
   159.0      0.2679E-03
   160.0      0.2670E-03
   161.0      0.2640E-03
   162.0      0.2589E-03
   163.0      0.2515E-03
   164.0      0.2420E-03
   165.0      0.2306E-03
   166.0      0.2177E-03
   167.0      0.2039E-03
   168.0      0.1897E-03
   169.0      0.1757E-03
   170.0      0.1625E-03
   171.0      0.1505E-03
   172.0      0.1402E-03
   173.0      0.1316E-03
   174.0      0.1249E-03
   175.0      0.1198E-03
   176.0      0.1162E-03
   177.0      0.1139E-03
   178.0      0.1125E-03
   179.0      0.1118E-03
   180.0      0.1115E-03
 END
@legend string   1 "Partition=  1 Excit=  2 near/far= 1"
#legend string   0 "Lab energy =   70.0000"
@s1 linestyle   2
#  Theta       sigma       iT11        T20         T21         T22         Kyy for projectile
   3.000       24.50    
   4.000       23.75    
   5.000       24.10    
   6.000       26.05    
   7.000       29.81    
   8.000       35.22    
   9.000       41.77    
   10.00       48.69    
   11.00       55.09    
   12.00       60.10    
   13.00       63.06    
   14.00       63.56    
   15.00       61.54    
   16.00       57.28    
   17.00       51.28    
   18.00       44.23    
   19.00       36.86    
   20.00       29.86    
   21.00       23.77    
   22.00       18.96    
   23.00       15.58    
   24.00       13.61    
   25.00       12.86    
   26.00       13.04    
   27.00       13.83    
   28.00       14.88    
   29.00       15.91    
   30.00       16.69    
   31.00       17.09    
   32.00       17.05    
   33.00       16.57    
   34.00       15.72    
   35.00       14.61    
   36.00       13.34    
   37.00       12.02    
   38.00       10.75    
   39.00       9.597    
   40.00       8.603    
   41.00       7.784    
   42.00       7.136    
   43.00       6.636    
   44.00       6.252    
   45.00       5.946    
   46.00       5.685    
   47.00       5.437    
   48.00       5.180    
   49.00       4.901    
   50.00       4.593    
   51.00       4.258    
   52.00       3.903    
   53.00       3.538    
   54.00       3.173    
   55.00       2.820    
   56.00       2.489    
   57.00       2.187    
   58.00       1.918    
   59.00       1.685    
   60.00       1.486    
   61.00       1.319    
   62.00       1.180    
   63.00       1.065    
   64.00      0.9688    
   65.00      0.8866    
   66.00      0.8146    
   67.00      0.7494    
   68.00      0.6886    
   69.00      0.6308    
   70.00      0.5750    
   71.00      0.5209    
   72.00      0.4689    
   73.00      0.4192    
   74.00      0.3723    
   75.00      0.3289    
   76.00      0.2894    
   77.00      0.2539    
   78.00      0.2226    
   79.00      0.1954    
   80.00      0.1720    
   81.00      0.1522    
   82.00      0.1354    
   83.00      0.1212    
   84.00      0.1092    
   85.00      0.9883E-01
   86.00      0.8978E-01
   87.00      0.8172E-01
   88.00      0.7441E-01
   89.00      0.6766E-01
   90.00      0.6136E-01
   91.00      0.5544E-01
   92.00      0.4988E-01
   93.00      0.4468E-01
   94.00      0.3985E-01
   95.00      0.3541E-01
   96.00      0.3138E-01
   97.00      0.2777E-01
   98.00      0.2459E-01
   99.00      0.2181E-01
   100.0      0.1943E-01
   101.0      0.1741E-01
   102.0      0.1569E-01
   103.0      0.1425E-01
   104.0      0.1304E-01
   105.0      0.1201E-01
   106.0      0.1112E-01
   107.0      0.1033E-01
   108.0      0.9623E-02
   109.0      0.8967E-02
   110.0      0.8347E-02
   111.0      0.7751E-02
   112.0      0.7172E-02
   113.0      0.6610E-02
   114.0      0.6063E-02
   115.0      0.5535E-02
   116.0      0.5031E-02
   117.0      0.4555E-02
   118.0      0.4110E-02
   119.0      0.3701E-02
   120.0      0.3330E-02
   121.0      0.2996E-02
   122.0      0.2702E-02
   123.0      0.2444E-02
   124.0      0.2221E-02
   125.0      0.2030E-02
   126.0      0.1867E-02
   127.0      0.1728E-02
   128.0      0.1610E-02
   129.0      0.1509E-02
   130.0      0.1421E-02
   131.0      0.1344E-02
   132.0      0.1273E-02
   133.0      0.1207E-02
   134.0      0.1145E-02
   135.0      0.1084E-02
   136.0      0.1025E-02
   137.0      0.9663E-03
   138.0      0.9080E-03
   139.0      0.8503E-03
   140.0      0.7937E-03
   141.0      0.7386E-03
   142.0      0.6852E-03
   143.0      0.6337E-03
   144.0      0.5846E-03
   145.0      0.5382E-03
   146.0      0.4951E-03
   147.0      0.4556E-03
   148.0      0.4199E-03
   149.0      0.3878E-03
   150.0      0.3591E-03
   151.0      0.3336E-03
   152.0      0.3112E-03
   153.0      0.2917E-03
   154.0      0.2746E-03
   155.0      0.2597E-03
   156.0      0.2466E-03
   157.0      0.2351E-03
   158.0      0.2248E-03
   159.0      0.2156E-03
   160.0      0.2070E-03
   161.0      0.1986E-03
   162.0      0.1901E-03
   163.0      0.1817E-03
   164.0      0.1733E-03
   165.0      0.1651E-03
   166.0      0.1571E-03
   167.0      0.1492E-03
   168.0      0.1416E-03
   169.0      0.1342E-03
   170.0      0.1273E-03
   171.0      0.1210E-03
   172.0      0.1153E-03
   173.0      0.1102E-03
   174.0      0.1058E-03
   175.0      0.1021E-03
   176.0      0.9939E-04
   177.0      0.9758E-04
   178.0      0.9662E-04
   179.0      0.9622E-04
   180.0      0.9612E-04
 END
