# 178 angles,  1 tensor ranks for 0=projectile
@subtitle   "20O + d Ex 8.575 2+;"                                                          
@legend ON
@legend x1 0.2
@legend y1 0.8
@g0 type LOGY
@yaxis ticklabel format power
@xaxis label "Scattering angle (degrees)"
@yaxis label "Cross section (mb/sr)"
@legend string   0 "Partition=  1 Excit=  1 near/far= 1"
#legend string   0 "Lab energy =   70.0000"
@s0 linestyle   1
#  Theta       sigma       iT11        T20         T21         T22         Kyy for projectile
   3.000      0.2805E+05
   4.000      0.1190E+05
   5.000       8383.    
   6.000       6830.    
   7.000       5597.    
   8.000       4440.    
   9.000       3370.    
   10.00       2431.    
   11.00       1655.    
   12.00       1053.    
   13.00       616.4    
   14.00       324.6    
   15.00       150.1    
   16.00       63.17    
   17.00       35.69    
   18.00       43.58    
   19.00       68.02    
   20.00       95.71    
   21.00       118.4    
   22.00       132.2    
   23.00       136.0    
   24.00       131.1    
   25.00       119.6    
   26.00       104.1    
   27.00       87.12    
   28.00       70.52    
   29.00       55.71    
   30.00       43.47    
   31.00       34.05    
   32.00       27.33    
   33.00       22.92    
   34.00       20.30    
   35.00       18.94    
   36.00       18.34    
   37.00       18.08    
   38.00       17.87    
   39.00       17.49    
   40.00       16.86    
   41.00       15.96    
   42.00       14.80    
   43.00       13.46    
   44.00       12.01    
   45.00       10.54    
   46.00       9.108    
   47.00       7.775    
   48.00       6.576    
   49.00       5.534    
   50.00       4.654    
   51.00       3.931    
   52.00       3.349    
   53.00       2.889    
   54.00       2.529    
   55.00       2.249    
   56.00       2.027    
   57.00       1.846    
   58.00       1.693    
   59.00       1.557    
   60.00       1.430    
   61.00       1.309    
   62.00       1.191    
   63.00       1.075    
   64.00      0.9625    
   65.00      0.8542    
   66.00      0.7518    
   67.00      0.6566    
   68.00      0.5699    
   69.00      0.4923    
   70.00      0.4243    
   71.00      0.3658    
   72.00      0.3163    
   73.00      0.2750    
   74.00      0.2410    
   75.00      0.2133    
   76.00      0.1906    
   77.00      0.1721    
   78.00      0.1566    
   79.00      0.1434    
   80.00      0.1318    
   81.00      0.1213    
   82.00      0.1114    
   83.00      0.1020    
   84.00      0.9299E-01
   85.00      0.8424E-01
   86.00      0.7580E-01
   87.00      0.6775E-01
   88.00      0.6017E-01
   89.00      0.5313E-01
   90.00      0.4670E-01
   91.00      0.4093E-01
   92.00      0.3584E-01
   93.00      0.3142E-01
   94.00      0.2765E-01
   95.00      0.2447E-01
   96.00      0.2182E-01
   97.00      0.1962E-01
   98.00      0.1780E-01
   99.00      0.1627E-01
   100.0      0.1498E-01
   101.0      0.1385E-01
   102.0      0.1283E-01
   103.0      0.1188E-01
   104.0      0.1098E-01
   105.0      0.1010E-01
   106.0      0.9236E-02
   107.0      0.8391E-02
   108.0      0.7568E-02
   109.0      0.6774E-02
   110.0      0.6020E-02
   111.0      0.5316E-02
   112.0      0.4671E-02
   113.0      0.4092E-02
   114.0      0.3584E-02
   115.0      0.3148E-02
   116.0      0.2782E-02
   117.0      0.2481E-02
   118.0      0.2241E-02
   119.0      0.2052E-02
   120.0      0.1906E-02
   121.0      0.1795E-02
   122.0      0.1708E-02
   123.0      0.1637E-02
   124.0      0.1576E-02
   125.0      0.1517E-02
   126.0      0.1457E-02
   127.0      0.1392E-02
   128.0      0.1320E-02
   129.0      0.1240E-02
   130.0      0.1153E-02
   131.0      0.1061E-02
   132.0      0.9642E-03
   133.0      0.8659E-03
   134.0      0.7681E-03
   135.0      0.6733E-03
   136.0      0.5836E-03
   137.0      0.5007E-03
   138.0      0.4261E-03
   139.0      0.3605E-03
   140.0      0.3044E-03
   141.0      0.2579E-03
   142.0      0.2205E-03
   143.0      0.1915E-03
   144.0      0.1700E-03
   145.0      0.1551E-03
   146.0      0.1454E-03
   147.0      0.1401E-03
   148.0      0.1380E-03
   149.0      0.1382E-03
   150.0      0.1400E-03
   151.0      0.1426E-03
   152.0      0.1457E-03
   153.0      0.1487E-03
   154.0      0.1514E-03
   155.0      0.1536E-03
   156.0      0.1549E-03
   157.0      0.1553E-03
   158.0      0.1546E-03
   159.0      0.1527E-03
   160.0      0.1495E-03
   161.0      0.1450E-03
   162.0      0.1393E-03
   163.0      0.1324E-03
   164.0      0.1246E-03
   165.0      0.1160E-03
   166.0      0.1071E-03
   167.0      0.9806E-04
   168.0      0.8933E-04
   169.0      0.8124E-04
   170.0      0.7406E-04
   171.0      0.6799E-04
   172.0      0.6315E-04
   173.0      0.5956E-04
   174.0      0.5712E-04
   175.0      0.5566E-04
   176.0      0.5496E-04
   177.0      0.5477E-04
   178.0      0.5484E-04
   179.0      0.5497E-04
   180.0      0.5503E-04
 END
@legend string   1 "Partition=  1 Excit=  2 near/far= 1"
#legend string   0 "Lab energy =   70.0000"
@s1 linestyle   2
#  Theta       sigma       iT11        T20         T21         T22         Kyy for projectile
   3.000       25.12    
   4.000       23.87    
   5.000       24.05    
   6.000       26.33    
   7.000       30.98    
   8.000       37.80    
   9.000       46.10    
   10.00       54.84    
   11.00       62.86    
   12.00       69.06    
   13.00       72.62    
   14.00       73.07    
   15.00       70.39    
   16.00       64.96    
   17.00       57.50    
   18.00       48.88    
   19.00       40.03    
   20.00       31.80    
   21.00       24.81    
   22.00       19.47    
   23.00       15.92    
   24.00       14.05    
   25.00       13.59    
   26.00       14.16    
   27.00       15.33    
   28.00       16.69    
   29.00       17.92    
   30.00       18.76    
   31.00       19.09    
   32.00       18.86    
   33.00       18.12    
   34.00       16.97    
   35.00       15.55    
   36.00       14.00    
   37.00       12.44    
   38.00       10.99    
   39.00       9.705    
   40.00       8.636    
   41.00       7.785    
   42.00       7.133    
   43.00       6.646    
   44.00       6.280    
   45.00       5.990    
   46.00       5.734    
   47.00       5.481    
   48.00       5.207    
   49.00       4.901    
   50.00       4.560    
   51.00       4.190    
   52.00       3.801    
   53.00       3.406    
   54.00       3.018    
   55.00       2.650    
   56.00       2.312    
   57.00       2.009    
   58.00       1.746    
   59.00       1.523    
   60.00       1.337    
   61.00       1.184    
   62.00       1.060    
   63.00      0.9580    
   64.00      0.8732    
   65.00      0.8007    
   66.00      0.7362    
   67.00      0.6768    
   68.00      0.6204    
   69.00      0.5659    
   70.00      0.5129    
   71.00      0.4614    
   72.00      0.4119    
   73.00      0.3651    
   74.00      0.3214    
   75.00      0.2815    
   76.00      0.2458    
   77.00      0.2142    
   78.00      0.1869    
   79.00      0.1636    
   80.00      0.1439    
   81.00      0.1274    
   82.00      0.1136    
   83.00      0.1020    
   84.00      0.9220E-01
   85.00      0.8368E-01
   86.00      0.7614E-01
   87.00      0.6933E-01
   88.00      0.6306E-01
   89.00      0.5720E-01
   90.00      0.5170E-01
   91.00      0.4652E-01
   92.00      0.4167E-01
   93.00      0.3716E-01
   94.00      0.3303E-01
   95.00      0.2928E-01
   96.00      0.2593E-01
   97.00      0.2299E-01
   98.00      0.2043E-01
   99.00      0.1823E-01
   100.0      0.1637E-01
   101.0      0.1481E-01
   102.0      0.1349E-01
   103.0      0.1238E-01
   104.0      0.1142E-01
   105.0      0.1060E-01
   106.0      0.9859E-02
   107.0      0.9188E-02
   108.0      0.8562E-02
   109.0      0.7965E-02
   110.0      0.7390E-02
   111.0      0.6833E-02
   112.0      0.6294E-02
   113.0      0.5773E-02
   114.0      0.5272E-02
   115.0      0.4797E-02
   116.0      0.4351E-02
   117.0      0.3938E-02
   118.0      0.3561E-02
   119.0      0.3220E-02
   120.0      0.2914E-02
   121.0      0.2644E-02
   122.0      0.2407E-02
   123.0      0.2202E-02
   124.0      0.2026E-02
   125.0      0.1872E-02
   126.0      0.1738E-02
   127.0      0.1619E-02
   128.0      0.1515E-02
   129.0      0.1422E-02
   130.0      0.1338E-02
   131.0      0.1261E-02
   132.0      0.1187E-02
   133.0      0.1117E-02
   134.0      0.1050E-02
   135.0      0.9849E-03
   136.0      0.9218E-03
   137.0      0.8602E-03
   138.0      0.8003E-03
   139.0      0.7428E-03
   140.0      0.6885E-03
   141.0      0.6377E-03
   142.0      0.5900E-03
   143.0      0.5450E-03
   144.0      0.5025E-03
   145.0      0.4629E-03
   146.0      0.4268E-03
   147.0      0.3944E-03
   148.0      0.3654E-03
   149.0      0.3393E-03
   150.0      0.3160E-03
   151.0      0.2951E-03
   152.0      0.2767E-03
   153.0      0.2603E-03
   154.0      0.2455E-03
   155.0      0.2318E-03
   156.0      0.2193E-03
   157.0      0.2080E-03
   158.0      0.1980E-03
   159.0      0.1890E-03
   160.0      0.1804E-03
   161.0      0.1717E-03
   162.0      0.1627E-03
   163.0      0.1538E-03
   164.0      0.1450E-03
   165.0      0.1365E-03
   166.0      0.1283E-03
   167.0      0.1202E-03
   168.0      0.1123E-03
   169.0      0.1049E-03
   170.0      0.9793E-04
   171.0      0.9160E-04
   172.0      0.8583E-04
   173.0      0.8056E-04
   174.0      0.7589E-04
   175.0      0.7202E-04
   176.0      0.6912E-04
   177.0      0.6723E-04
   178.0      0.6618E-04
   179.0      0.6571E-04
   180.0      0.6559E-04
 END
