# 181 angles,  1 tensor ranks for 0=projectile
@subtitle   "20O(p,d) @ 30AMeV CH89 (p) + ADWA (d)"                                         
@legend ON
@legend x1 0.2
@legend y1 0.8
@g0 type LOGY
@yaxis ticklabel format power
@xaxis label "Scattering angle (degrees)"
@yaxis label "Cross section (mb/sr)"
@legend string   0 "Partition=  1 Excit=  1 near/far= 1"
#legend string   0 "Lab energy =   35.0000"
@s0 linestyle   1
#  Theta       sigma       iT11        T20         T21         T22         Kyy for projectile
  0.1000E-01  0.1288E+16
   1.000      0.1252E+08
   2.000      0.7271E+06
   3.000      0.1300E+06
   4.000      0.3716E+05
   5.000      0.1421E+05
   6.000       6905.    
   7.000       4165.    
   8.000       3003.    
   9.000       2448.    
   10.00       2143.    
   11.00       1945.    
   12.00       1792.    
   13.00       1658.    
   14.00       1533.    
   15.00       1411.    
   16.00       1291.    
   17.00       1173.    
   18.00       1058.    
   19.00       947.2    
   20.00       841.3    
   21.00       741.2    
   22.00       647.5    
   23.00       560.8    
   24.00       481.3    
   25.00       409.2    
   26.00       344.6    
   27.00       287.3    
   28.00       237.0    
   29.00       193.4    
   30.00       156.1    
   31.00       124.7    
   32.00       98.58    
   33.00       77.27    
   34.00       60.23    
   35.00       46.92    
   36.00       36.83    
   37.00       29.48    
   38.00       24.40    
   39.00       21.16    
   40.00       19.39    
   41.00       18.73    
   42.00       18.90    
   43.00       19.62    
   44.00       20.68    
   45.00       21.90    
   46.00       23.14    
   47.00       24.28    
   48.00       25.25    
   49.00       25.97    
   50.00       26.43    
   51.00       26.60    
   52.00       26.48    
   53.00       26.08    
   54.00       25.43    
   55.00       24.55    
   56.00       23.48    
   57.00       22.25    
   58.00       20.89    
   59.00       19.44    
   60.00       17.94    
   61.00       16.42    
   62.00       14.90    
   63.00       13.41    
   64.00       11.98    
   65.00       10.61    
   66.00       9.320    
   67.00       8.126    
   68.00       7.031    
   69.00       6.040    
   70.00       5.153    
   71.00       4.369    
   72.00       3.686    
   73.00       3.099    
   74.00       2.603    
   75.00       2.189    
   76.00       1.851    
   77.00       1.581    
   78.00       1.372    
   79.00       1.214    
   80.00       1.101    
   81.00       1.024    
   82.00      0.9780    
   83.00      0.9557    
   84.00      0.9514    
   85.00      0.9601    
   86.00      0.9773    
   87.00      0.9993    
   88.00       1.023    
   89.00       1.045    
   90.00       1.064    
   91.00       1.078    
   92.00       1.086    
   93.00       1.088    
   94.00       1.083    
   95.00       1.070    
   96.00       1.051    
   97.00       1.025    
   98.00      0.9925    
   99.00      0.9552    
   100.0      0.9132    
   101.0      0.8674    
   102.0      0.8185    
   103.0      0.7675    
   104.0      0.7151    
   105.0      0.6620    
   106.0      0.6090    
   107.0      0.5567    
   108.0      0.5056    
   109.0      0.4563    
   110.0      0.4092    
   111.0      0.3646    
   112.0      0.3228    
   113.0      0.2841    
   114.0      0.2485    
   115.0      0.2162    
   116.0      0.1872    
   117.0      0.1614    
   118.0      0.1388    
   119.0      0.1192    
   120.0      0.1026    
   121.0      0.8867E-01
   122.0      0.7733E-01
   123.0      0.6833E-01
   124.0      0.6146E-01
   125.0      0.5648E-01
   126.0      0.5317E-01
   127.0      0.5129E-01
   128.0      0.5062E-01
   129.0      0.5095E-01
   130.0      0.5206E-01
   131.0      0.5377E-01
   132.0      0.5591E-01
   133.0      0.5830E-01
   134.0      0.6081E-01
   135.0      0.6330E-01
   136.0      0.6568E-01
   137.0      0.6785E-01
   138.0      0.6974E-01
   139.0      0.7130E-01
   140.0      0.7250E-01
   141.0      0.7332E-01
   142.0      0.7374E-01
   143.0      0.7378E-01
   144.0      0.7347E-01
   145.0      0.7283E-01
   146.0      0.7191E-01
   147.0      0.7075E-01
   148.0      0.6941E-01
   149.0      0.6795E-01
   150.0      0.6642E-01
   151.0      0.6489E-01
   152.0      0.6342E-01
   153.0      0.6206E-01
   154.0      0.6086E-01
   155.0      0.5988E-01
   156.0      0.5915E-01
   157.0      0.5871E-01
   158.0      0.5857E-01
   159.0      0.5877E-01
   160.0      0.5930E-01
   161.0      0.6017E-01
   162.0      0.6137E-01
   163.0      0.6287E-01
   164.0      0.6466E-01
   165.0      0.6671E-01
   166.0      0.6896E-01
   167.0      0.7138E-01
   168.0      0.7392E-01
   169.0      0.7653E-01
   170.0      0.7915E-01
   171.0      0.8173E-01
   172.0      0.8421E-01
   173.0      0.8654E-01
   174.0      0.8867E-01
   175.0      0.9056E-01
   176.0      0.9216E-01
   177.0      0.9345E-01
   178.0      0.9439E-01
   179.0      0.9496E-01
   180.0      0.9515E-01
 END
@legend string   1 "Partition=  2 Excit=  1 near/far= 1"
#legend string   0 "Lab energy =   35.0000"
@s1 linestyle   2
#  Theta       sigma       iT11        T20         T21         T22         Kyy for projectile
   0.000       7.782    
   1.000       7.768    
   2.000       7.725    
   3.000       7.657    
   4.000       7.566    
   5.000       7.457    
   6.000       7.334    
   7.000       7.200    
   8.000       7.057    
   9.000       6.905    
   10.00       6.745    
   11.00       6.574    
   12.00       6.389    
   13.00       6.186    
   14.00       5.962    
   15.00       5.713    
   16.00       5.439    
   17.00       5.139    
   18.00       4.814    
   19.00       4.467    
   20.00       4.105    
   21.00       3.732    
   22.00       3.357    
   23.00       2.988    
   24.00       2.632    
   25.00       2.297    
   26.00       1.990    
   27.00       1.717    
   28.00       1.482    
   29.00       1.287    
   30.00       1.135    
   31.00       1.023    
   32.00      0.9520    
   33.00      0.9171    
   34.00      0.9147    
   35.00      0.9398    
   36.00      0.9871    
   37.00       1.051    
   38.00       1.126    
   39.00       1.206    
   40.00       1.287    
   41.00       1.365    
   42.00       1.435    
   43.00       1.496    
   44.00       1.544    
   45.00       1.579    
   46.00       1.600    
   47.00       1.606    
   48.00       1.599    
   49.00       1.580    
   50.00       1.550    
   51.00       1.510    
   52.00       1.463    
   53.00       1.411    
   54.00       1.354    
   55.00       1.296    
   56.00       1.237    
   57.00       1.179    
   58.00       1.123    
   59.00       1.070    
   60.00       1.021    
   61.00      0.9762    
   62.00      0.9358    
   63.00      0.8998    
   64.00      0.8681    
   65.00      0.8404    
   66.00      0.8163    
   67.00      0.7954    
   68.00      0.7770    
   69.00      0.7607    
   70.00      0.7458    
   71.00      0.7319    
   72.00      0.7185    
   73.00      0.7051    
   74.00      0.6914    
   75.00      0.6771    
   76.00      0.6620    
   77.00      0.6459    
   78.00      0.6287    
   79.00      0.6105    
   80.00      0.5913    
   81.00      0.5712    
   82.00      0.5503    
   83.00      0.5289    
   84.00      0.5070    
   85.00      0.4848    
   86.00      0.4627    
   87.00      0.4407    
   88.00      0.4191    
   89.00      0.3981    
   90.00      0.3777    
   91.00      0.3582    
   92.00      0.3396    
   93.00      0.3220    
   94.00      0.3054    
   95.00      0.2900    
   96.00      0.2756    
   97.00      0.2623    
   98.00      0.2501    
   99.00      0.2388    
   100.0      0.2285    
   101.0      0.2191    
   102.0      0.2104    
   103.0      0.2025    
   104.0      0.1951    
   105.0      0.1883    
   106.0      0.1820    
   107.0      0.1760    
   108.0      0.1704    
   109.0      0.1650    
   110.0      0.1598    
   111.0      0.1548    
   112.0      0.1500    
   113.0      0.1452    
   114.0      0.1405    
   115.0      0.1359    
   116.0      0.1313    
   117.0      0.1268    
   118.0      0.1224    
   119.0      0.1180    
   120.0      0.1136    
   121.0      0.1094    
   122.0      0.1052    
   123.0      0.1010    
   124.0      0.9702E-01
   125.0      0.9307E-01
   126.0      0.8923E-01
   127.0      0.8549E-01
   128.0      0.8186E-01
   129.0      0.7834E-01
   130.0      0.7494E-01
   131.0      0.7165E-01
   132.0      0.6849E-01
   133.0      0.6546E-01
   134.0      0.6256E-01
   135.0      0.5980E-01
   136.0      0.5719E-01
   137.0      0.5472E-01
   138.0      0.5241E-01
   139.0      0.5025E-01
   140.0      0.4827E-01
   141.0      0.4645E-01
   142.0      0.4482E-01
   143.0      0.4336E-01
   144.0      0.4209E-01
   145.0      0.4100E-01
   146.0      0.4011E-01
   147.0      0.3940E-01
   148.0      0.3888E-01
   149.0      0.3854E-01
   150.0      0.3838E-01
   151.0      0.3840E-01
   152.0      0.3858E-01
   153.0      0.3891E-01
   154.0      0.3939E-01
   155.0      0.4001E-01
   156.0      0.4075E-01
   157.0      0.4161E-01
   158.0      0.4257E-01
   159.0      0.4361E-01
   160.0      0.4473E-01
   161.0      0.4591E-01
   162.0      0.4714E-01
   163.0      0.4841E-01
   164.0      0.4969E-01
   165.0      0.5099E-01
   166.0      0.5228E-01
   167.0      0.5355E-01
   168.0      0.5480E-01
   169.0      0.5600E-01
   170.0      0.5714E-01
   171.0      0.5821E-01
   172.0      0.5921E-01
   173.0      0.6012E-01
   174.0      0.6093E-01
   175.0      0.6163E-01
   176.0      0.6221E-01
   177.0      0.6267E-01
   178.0      0.6301E-01
   179.0      0.6321E-01
   180.0      0.6328E-01
 END
