# 181 angles,  1 tensor ranks for 0=projectile
@subtitle   "20O(p,d) @ 30AMeV CH89 (p) + ADWA (d)"                                         
@legend ON
@legend x1 0.2
@legend y1 0.8
@g0 type LOGY
@yaxis ticklabel format power
@xaxis label "Scattering angle (degrees)"
@yaxis label "Cross section (mb/sr)"
@legend string   0 "Partition=  1 Excit=  1 near/far= 1"
#legend string   0 "Lab energy =   35.0000"
@s0 linestyle   1
#  Theta       sigma       iT11        T20         T21         T22         Kyy for projectile
  0.1000E-01  0.1288E+16
   1.000      0.1252E+08
   2.000      0.7271E+06
   3.000      0.1300E+06
   4.000      0.3715E+05
   5.000      0.1421E+05
   6.000       6904.    
   7.000       4165.    
   8.000       3003.    
   9.000       2448.    
   10.00       2143.    
   11.00       1945.    
   12.00       1792.    
   13.00       1658.    
   14.00       1533.    
   15.00       1411.    
   16.00       1291.    
   17.00       1173.    
   18.00       1058.    
   19.00       947.3    
   20.00       841.4    
   21.00       741.3    
   22.00       647.6    
   23.00       560.9    
   24.00       481.4    
   25.00       409.3    
   26.00       344.7    
   27.00       287.3    
   28.00       237.0    
   29.00       193.4    
   30.00       156.2    
   31.00       124.7    
   32.00       98.60    
   33.00       77.28    
   34.00       60.23    
   35.00       46.92    
   36.00       36.84    
   37.00       29.48    
   38.00       24.39    
   39.00       21.15    
   40.00       19.38    
   41.00       18.72    
   42.00       18.88    
   43.00       19.60    
   44.00       20.67    
   45.00       21.89    
   46.00       23.13    
   47.00       24.27    
   48.00       25.23    
   49.00       25.96    
   50.00       26.41    
   51.00       26.58    
   52.00       26.46    
   53.00       26.07    
   54.00       25.42    
   55.00       24.54    
   56.00       23.47    
   57.00       22.23    
   58.00       20.88    
   59.00       19.43    
   60.00       17.93    
   61.00       16.41    
   62.00       14.89    
   63.00       13.41    
   64.00       11.97    
   65.00       10.60    
   66.00       9.315    
   67.00       8.121    
   68.00       7.027    
   69.00       6.036    
   70.00       5.149    
   71.00       4.366    
   72.00       3.684    
   73.00       3.097    
   74.00       2.601    
   75.00       2.188    
   76.00       1.850    
   77.00       1.580    
   78.00       1.371    
   79.00       1.213    
   80.00       1.100    
   81.00       1.023    
   82.00      0.9773    
   83.00      0.9550    
   84.00      0.9508    
   85.00      0.9595    
   86.00      0.9768    
   87.00      0.9987    
   88.00       1.022    
   89.00       1.044    
   90.00       1.063    
   91.00       1.078    
   92.00       1.086    
   93.00       1.087    
   94.00       1.082    
   95.00       1.069    
   96.00       1.050    
   97.00       1.024    
   98.00      0.9919    
   99.00      0.9545    
   100.0      0.9126    
   101.0      0.8668    
   102.0      0.8180    
   103.0      0.7670    
   104.0      0.7146    
   105.0      0.6615    
   106.0      0.6085    
   107.0      0.5562    
   108.0      0.5052    
   109.0      0.4559    
   110.0      0.4088    
   111.0      0.3643    
   112.0      0.3225    
   113.0      0.2838    
   114.0      0.2483    
   115.0      0.2160    
   116.0      0.1870    
   117.0      0.1612    
   118.0      0.1386    
   119.0      0.1191    
   120.0      0.1025    
   121.0      0.8860E-01
   122.0      0.7728E-01
   123.0      0.6830E-01
   124.0      0.6144E-01
   125.0      0.5648E-01
   126.0      0.5318E-01
   127.0      0.5131E-01
   128.0      0.5065E-01
   129.0      0.5099E-01
   130.0      0.5211E-01
   131.0      0.5383E-01
   132.0      0.5597E-01
   133.0      0.5836E-01
   134.0      0.6087E-01
   135.0      0.6337E-01
   136.0      0.6575E-01
   137.0      0.6792E-01
   138.0      0.6982E-01
   139.0      0.7138E-01
   140.0      0.7258E-01
   141.0      0.7339E-01
   142.0      0.7382E-01
   143.0      0.7386E-01
   144.0      0.7355E-01
   145.0      0.7291E-01
   146.0      0.7198E-01
   147.0      0.7082E-01
   148.0      0.6948E-01
   149.0      0.6801E-01
   150.0      0.6648E-01
   151.0      0.6495E-01
   152.0      0.6347E-01
   153.0      0.6211E-01
   154.0      0.6091E-01
   155.0      0.5992E-01
   156.0      0.5919E-01
   157.0      0.5874E-01
   158.0      0.5860E-01
   159.0      0.5879E-01
   160.0      0.5931E-01
   161.0      0.6017E-01
   162.0      0.6136E-01
   163.0      0.6286E-01
   164.0      0.6464E-01
   165.0      0.6668E-01
   166.0      0.6892E-01
   167.0      0.7134E-01
   168.0      0.7387E-01
   169.0      0.7647E-01
   170.0      0.7908E-01
   171.0      0.8165E-01
   172.0      0.8413E-01
   173.0      0.8645E-01
   174.0      0.8858E-01
   175.0      0.9047E-01
   176.0      0.9207E-01
   177.0      0.9335E-01
   178.0      0.9428E-01
   179.0      0.9485E-01
   180.0      0.9504E-01
 END
@legend string   1 "Partition=  2 Excit=  1 near/far= 1"
#legend string   0 "Lab energy =   35.0000"
@s1 linestyle   2
#  Theta       sigma       iT11        T20         T21         T22         Kyy for projectile
   0.000       12.51    
   1.000       12.47    
   2.000       12.37    
   3.000       12.21    
   4.000       12.00    
   5.000       11.76    
   6.000       11.50    
   7.000       11.22    
   8.000       10.96    
   9.000       10.70    
   10.00       10.44    
   11.00       10.20    
   12.00       9.955    
   13.00       9.702    
   14.00       9.430    
   15.00       9.130    
   16.00       8.794    
   17.00       8.415    
   18.00       7.992    
   19.00       7.526    
   20.00       7.021    
   21.00       6.484    
   22.00       5.928    
   23.00       5.363    
   24.00       4.803    
   25.00       4.261    
   26.00       3.749    
   27.00       3.280    
   28.00       2.862    
   29.00       2.503    
   30.00       2.206    
   31.00       1.974    
   32.00       1.808    
   33.00       1.702    
   34.00       1.655    
   35.00       1.657    
   36.00       1.704    
   37.00       1.785    
   38.00       1.893    
   39.00       2.019    
   40.00       2.154    
   41.00       2.292    
   42.00       2.424    
   43.00       2.546    
   44.00       2.652    
   45.00       2.739    
   46.00       2.806    
   47.00       2.849    
   48.00       2.870    
   49.00       2.869    
   50.00       2.846    
   51.00       2.805    
   52.00       2.747    
   53.00       2.675    
   54.00       2.592    
   55.00       2.501    
   56.00       2.404    
   57.00       2.305    
   58.00       2.205    
   59.00       2.107    
   60.00       2.012    
   61.00       1.922    
   62.00       1.837    
   63.00       1.759    
   64.00       1.688    
   65.00       1.624    
   66.00       1.567    
   67.00       1.516    
   68.00       1.471    
   69.00       1.431    
   70.00       1.395    
   71.00       1.363    
   72.00       1.334    
   73.00       1.307    
   74.00       1.281    
   75.00       1.256    
   76.00       1.231    
   77.00       1.206    
   78.00       1.180    
   79.00       1.152    
   80.00       1.124    
   81.00       1.094    
   82.00       1.063    
   83.00       1.031    
   84.00      0.9973    
   85.00      0.9629    
   86.00      0.9277    
   87.00      0.8920    
   88.00      0.8560    
   89.00      0.8201    
   90.00      0.7844    
   91.00      0.7492    
   92.00      0.7148    
   93.00      0.6813    
   94.00      0.6489    
   95.00      0.6177    
   96.00      0.5879    
   97.00      0.5596    
   98.00      0.5328    
   99.00      0.5075    
   100.0      0.4838    
   101.0      0.4616    
   102.0      0.4410    
   103.0      0.4218    
   104.0      0.4040    
   105.0      0.3876    
   106.0      0.3724    
   107.0      0.3584    
   108.0      0.3455    
   109.0      0.3336    
   110.0      0.3226    
   111.0      0.3124    
   112.0      0.3030    
   113.0      0.2941    
   114.0      0.2858    
   115.0      0.2780    
   116.0      0.2706    
   117.0      0.2635    
   118.0      0.2566    
   119.0      0.2500    
   120.0      0.2434    
   121.0      0.2370    
   122.0      0.2305    
   123.0      0.2241    
   124.0      0.2176    
   125.0      0.2112    
   126.0      0.2046    
   127.0      0.1980    
   128.0      0.1914    
   129.0      0.1847    
   130.0      0.1781    
   131.0      0.1715    
   132.0      0.1649    
   133.0      0.1585    
   134.0      0.1522    
   135.0      0.1461    
   136.0      0.1403    
   137.0      0.1347    
   138.0      0.1295    
   139.0      0.1247    
   140.0      0.1204    
   141.0      0.1164    
   142.0      0.1130    
   143.0      0.1100    
   144.0      0.1075    
   145.0      0.1056    
   146.0      0.1041    
   147.0      0.1032    
   148.0      0.1027    
   149.0      0.1026    
   150.0      0.1030    
   151.0      0.1038    
   152.0      0.1049    
   153.0      0.1064    
   154.0      0.1081    
   155.0      0.1102    
   156.0      0.1124    
   157.0      0.1149    
   158.0      0.1175    
   159.0      0.1202    
   160.0      0.1230    
   161.0      0.1260    
   162.0      0.1289    
   163.0      0.1319    
   164.0      0.1349    
   165.0      0.1379    
   166.0      0.1409    
   167.0      0.1438    
   168.0      0.1465    
   169.0      0.1492    
   170.0      0.1518    
   171.0      0.1542    
   172.0      0.1564    
   173.0      0.1584    
   174.0      0.1602    
   175.0      0.1618    
   176.0      0.1631    
   177.0      0.1641    
   178.0      0.1649    
   179.0      0.1653    
   180.0      0.1655    
 END
