# 181 angles,  1 tensor ranks for 0=projectile
@subtitle   "20O(p,d) @ 30AMeV CH89 (p) + ADWA (d)"                                         
@legend ON
@legend x1 0.2
@legend y1 0.8
@g0 type LOGY
@yaxis ticklabel format power
@xaxis label "Scattering angle (degrees)"
@yaxis label "Cross section (mb/sr)"
@legend string   0 "Partition=  1 Excit=  1 near/far= 1"
#legend string   0 "Lab energy =   35.0000"
@s0 linestyle   1
#  Theta       sigma       iT11        T20         T21         T22         Kyy for projectile
  0.1000E-01  0.1288E+16
   1.000      0.1252E+08
   2.000      0.7271E+06
   3.000      0.1300E+06
   4.000      0.3715E+05
   5.000      0.1421E+05
   6.000       6904.    
   7.000       4165.    
   8.000       3003.    
   9.000       2448.    
   10.00       2143.    
   11.00       1945.    
   12.00       1792.    
   13.00       1658.    
   14.00       1533.    
   15.00       1411.    
   16.00       1291.    
   17.00       1173.    
   18.00       1058.    
   19.00       947.3    
   20.00       841.4    
   21.00       741.3    
   22.00       647.6    
   23.00       560.9    
   24.00       481.4    
   25.00       409.3    
   26.00       344.7    
   27.00       287.3    
   28.00       237.0    
   29.00       193.4    
   30.00       156.2    
   31.00       124.7    
   32.00       98.60    
   33.00       77.28    
   34.00       60.23    
   35.00       46.92    
   36.00       36.84    
   37.00       29.48    
   38.00       24.39    
   39.00       21.15    
   40.00       19.38    
   41.00       18.72    
   42.00       18.88    
   43.00       19.60    
   44.00       20.67    
   45.00       21.89    
   46.00       23.13    
   47.00       24.27    
   48.00       25.23    
   49.00       25.96    
   50.00       26.41    
   51.00       26.58    
   52.00       26.46    
   53.00       26.07    
   54.00       25.42    
   55.00       24.54    
   56.00       23.47    
   57.00       22.23    
   58.00       20.88    
   59.00       19.43    
   60.00       17.93    
   61.00       16.41    
   62.00       14.89    
   63.00       13.41    
   64.00       11.97    
   65.00       10.60    
   66.00       9.315    
   67.00       8.121    
   68.00       7.027    
   69.00       6.036    
   70.00       5.149    
   71.00       4.366    
   72.00       3.684    
   73.00       3.097    
   74.00       2.601    
   75.00       2.188    
   76.00       1.850    
   77.00       1.580    
   78.00       1.371    
   79.00       1.213    
   80.00       1.100    
   81.00       1.023    
   82.00      0.9773    
   83.00      0.9550    
   84.00      0.9508    
   85.00      0.9595    
   86.00      0.9768    
   87.00      0.9987    
   88.00       1.022    
   89.00       1.044    
   90.00       1.063    
   91.00       1.078    
   92.00       1.086    
   93.00       1.087    
   94.00       1.082    
   95.00       1.069    
   96.00       1.050    
   97.00       1.024    
   98.00      0.9919    
   99.00      0.9545    
   100.0      0.9126    
   101.0      0.8668    
   102.0      0.8180    
   103.0      0.7670    
   104.0      0.7146    
   105.0      0.6615    
   106.0      0.6085    
   107.0      0.5562    
   108.0      0.5052    
   109.0      0.4559    
   110.0      0.4088    
   111.0      0.3643    
   112.0      0.3225    
   113.0      0.2838    
   114.0      0.2483    
   115.0      0.2160    
   116.0      0.1870    
   117.0      0.1612    
   118.0      0.1386    
   119.0      0.1191    
   120.0      0.1025    
   121.0      0.8860E-01
   122.0      0.7728E-01
   123.0      0.6830E-01
   124.0      0.6145E-01
   125.0      0.5648E-01
   126.0      0.5318E-01
   127.0      0.5131E-01
   128.0      0.5065E-01
   129.0      0.5099E-01
   130.0      0.5211E-01
   131.0      0.5383E-01
   132.0      0.5597E-01
   133.0      0.5836E-01
   134.0      0.6087E-01
   135.0      0.6337E-01
   136.0      0.6575E-01
   137.0      0.6792E-01
   138.0      0.6982E-01
   139.0      0.7138E-01
   140.0      0.7258E-01
   141.0      0.7339E-01
   142.0      0.7382E-01
   143.0      0.7386E-01
   144.0      0.7355E-01
   145.0      0.7291E-01
   146.0      0.7198E-01
   147.0      0.7082E-01
   148.0      0.6948E-01
   149.0      0.6801E-01
   150.0      0.6648E-01
   151.0      0.6495E-01
   152.0      0.6347E-01
   153.0      0.6211E-01
   154.0      0.6091E-01
   155.0      0.5992E-01
   156.0      0.5919E-01
   157.0      0.5874E-01
   158.0      0.5860E-01
   159.0      0.5879E-01
   160.0      0.5931E-01
   161.0      0.6017E-01
   162.0      0.6136E-01
   163.0      0.6286E-01
   164.0      0.6464E-01
   165.0      0.6668E-01
   166.0      0.6892E-01
   167.0      0.7134E-01
   168.0      0.7387E-01
   169.0      0.7647E-01
   170.0      0.7908E-01
   171.0      0.8165E-01
   172.0      0.8413E-01
   173.0      0.8645E-01
   174.0      0.8858E-01
   175.0      0.9047E-01
   176.0      0.9207E-01
   177.0      0.9335E-01
   178.0      0.9428E-01
   179.0      0.9485E-01
   180.0      0.9504E-01
 END
@legend string   1 "Partition=  2 Excit=  1 near/far= 1"
#legend string   0 "Lab energy =   35.0000"
@s1 linestyle   2
#  Theta       sigma       iT11        T20         T21         T22         Kyy for projectile
   0.000       9.695    
   1.000       9.676    
   2.000       9.619    
   3.000       9.529    
   4.000       9.409    
   5.000       9.266    
   6.000       9.107    
   7.000       8.936    
   8.000       8.759    
   9.000       8.578    
   10.00       8.393    
   11.00       8.203    
   12.00       8.005    
   13.00       7.794    
   14.00       7.566    
   15.00       7.315    
   16.00       7.039    
   17.00       6.735    
   18.00       6.402    
   19.00       6.043    
   20.00       5.660    
   21.00       5.259    
   22.00       4.846    
   23.00       4.430    
   24.00       4.019    
   25.00       3.622    
   26.00       3.246    
   27.00       2.900    
   28.00       2.590    
   29.00       2.320    
   30.00       2.095    
   31.00       1.914    
   32.00       1.780    
   33.00       1.689    
   34.00       1.639    
   35.00       1.627    
   36.00       1.646    
   37.00       1.692    
   38.00       1.758    
   39.00       1.839    
   40.00       1.929    
   41.00       2.022    
   42.00       2.112    
   43.00       2.197    
   44.00       2.271    
   45.00       2.333    
   46.00       2.380    
   47.00       2.411    
   48.00       2.425    
   49.00       2.422    
   50.00       2.404    
   51.00       2.370    
   52.00       2.324    
   53.00       2.266    
   54.00       2.199    
   55.00       2.125    
   56.00       2.046    
   57.00       1.963    
   58.00       1.879    
   59.00       1.796    
   60.00       1.714    
   61.00       1.636    
   62.00       1.561    
   63.00       1.492    
   64.00       1.427    
   65.00       1.368    
   66.00       1.314    
   67.00       1.266    
   68.00       1.223    
   69.00       1.184    
   70.00       1.150    
   71.00       1.118    
   72.00       1.090    
   73.00       1.065    
   74.00       1.041    
   75.00       1.018    
   76.00      0.9962    
   77.00      0.9746    
   78.00      0.9531    
   79.00      0.9311    
   80.00      0.9087    
   81.00      0.8855    
   82.00      0.8615    
   83.00      0.8368    
   84.00      0.8112    
   85.00      0.7850    
   86.00      0.7581    
   87.00      0.7308    
   88.00      0.7032    
   89.00      0.6754    
   90.00      0.6477    
   91.00      0.6203    
   92.00      0.5932    
   93.00      0.5667    
   94.00      0.5409    
   95.00      0.5159    
   96.00      0.4919    
   97.00      0.4688    
   98.00      0.4469    
   99.00      0.4261    
   100.0      0.4065    
   101.0      0.3881    
   102.0      0.3708    
   103.0      0.3547    
   104.0      0.3398    
   105.0      0.3259    
   106.0      0.3131    
   107.0      0.3012    
   108.0      0.2903    
   109.0      0.2802    
   110.0      0.2709    
   111.0      0.2623    
   112.0      0.2544    
   113.0      0.2470    
   114.0      0.2401    
   115.0      0.2336    
   116.0      0.2275    
   117.0      0.2217    
   118.0      0.2161    
   119.0      0.2107    
   120.0      0.2055    
   121.0      0.2003    
   122.0      0.1951    
   123.0      0.1900    
   124.0      0.1848    
   125.0      0.1796    
   126.0      0.1744    
   127.0      0.1691    
   128.0      0.1638    
   129.0      0.1584    
   130.0      0.1530    
   131.0      0.1476    
   132.0      0.1423    
   133.0      0.1370    
   134.0      0.1319    
   135.0      0.1269    
   136.0      0.1220    
   137.0      0.1174    
   138.0      0.1131    
   139.0      0.1090    
   140.0      0.1053    
   141.0      0.1020    
   142.0      0.9901E-01
   143.0      0.9644E-01
   144.0      0.9429E-01
   145.0      0.9257E-01
   146.0      0.9127E-01
   147.0      0.9039E-01
   148.0      0.8993E-01
   149.0      0.8987E-01
   150.0      0.9019E-01
   151.0      0.9088E-01
   152.0      0.9190E-01
   153.0      0.9324E-01
   154.0      0.9485E-01
   155.0      0.9672E-01
   156.0      0.9882E-01
   157.0      0.1011    
   158.0      0.1036    
   159.0      0.1061    
   160.0      0.1088    
   161.0      0.1116    
   162.0      0.1145    
   163.0      0.1173    
   164.0      0.1202    
   165.0      0.1230    
   166.0      0.1258    
   167.0      0.1285    
   168.0      0.1312    
   169.0      0.1337    
   170.0      0.1361    
   171.0      0.1383    
   172.0      0.1404    
   173.0      0.1423    
   174.0      0.1439    
   175.0      0.1454    
   176.0      0.1465    
   177.0      0.1475    
   178.0      0.1482    
   179.0      0.1486    
   180.0      0.1487    
 END
