# 181 angles,  1 tensor ranks for 0=projectile
@subtitle   "20O(p,d) @ 30AMeV CH89 (p) + ADWA (d)"                                         
@legend ON
@legend x1 0.2
@legend y1 0.8
@g0 type LOGY
@yaxis ticklabel format power
@xaxis label "Scattering angle (degrees)"
@yaxis label "Cross section (mb/sr)"
@legend string   0 "Partition=  1 Excit=  1 near/far= 1"
#legend string   0 "Lab energy =   35.0000"
@s0 linestyle   1
#  Theta       sigma       iT11        T20         T21         T22         Kyy for projectile
  0.1000E-01  0.1288E+16
   1.000      0.1252E+08
   2.000      0.7271E+06
   3.000      0.1300E+06
   4.000      0.3715E+05
   5.000      0.1421E+05
   6.000       6904.    
   7.000       4165.    
   8.000       3003.    
   9.000       2448.    
   10.00       2143.    
   11.00       1945.    
   12.00       1792.    
   13.00       1658.    
   14.00       1533.    
   15.00       1411.    
   16.00       1291.    
   17.00       1173.    
   18.00       1058.    
   19.00       947.3    
   20.00       841.4    
   21.00       741.3    
   22.00       647.6    
   23.00       560.9    
   24.00       481.4    
   25.00       409.3    
   26.00       344.7    
   27.00       287.3    
   28.00       237.0    
   29.00       193.4    
   30.00       156.2    
   31.00       124.7    
   32.00       98.60    
   33.00       77.28    
   34.00       60.23    
   35.00       46.92    
   36.00       36.84    
   37.00       29.48    
   38.00       24.39    
   39.00       21.15    
   40.00       19.38    
   41.00       18.72    
   42.00       18.88    
   43.00       19.60    
   44.00       20.67    
   45.00       21.89    
   46.00       23.13    
   47.00       24.27    
   48.00       25.23    
   49.00       25.96    
   50.00       26.41    
   51.00       26.58    
   52.00       26.46    
   53.00       26.07    
   54.00       25.42    
   55.00       24.54    
   56.00       23.47    
   57.00       22.23    
   58.00       20.88    
   59.00       19.43    
   60.00       17.93    
   61.00       16.41    
   62.00       14.89    
   63.00       13.41    
   64.00       11.97    
   65.00       10.60    
   66.00       9.315    
   67.00       8.121    
   68.00       7.027    
   69.00       6.036    
   70.00       5.149    
   71.00       4.366    
   72.00       3.684    
   73.00       3.097    
   74.00       2.601    
   75.00       2.188    
   76.00       1.850    
   77.00       1.580    
   78.00       1.371    
   79.00       1.213    
   80.00       1.100    
   81.00       1.023    
   82.00      0.9773    
   83.00      0.9550    
   84.00      0.9508    
   85.00      0.9595    
   86.00      0.9768    
   87.00      0.9987    
   88.00       1.022    
   89.00       1.044    
   90.00       1.063    
   91.00       1.078    
   92.00       1.086    
   93.00       1.087    
   94.00       1.082    
   95.00       1.069    
   96.00       1.050    
   97.00       1.024    
   98.00      0.9919    
   99.00      0.9545    
   100.0      0.9126    
   101.0      0.8668    
   102.0      0.8180    
   103.0      0.7670    
   104.0      0.7146    
   105.0      0.6615    
   106.0      0.6085    
   107.0      0.5562    
   108.0      0.5052    
   109.0      0.4559    
   110.0      0.4088    
   111.0      0.3643    
   112.0      0.3225    
   113.0      0.2838    
   114.0      0.2483    
   115.0      0.2160    
   116.0      0.1870    
   117.0      0.1612    
   118.0      0.1386    
   119.0      0.1191    
   120.0      0.1025    
   121.0      0.8860E-01
   122.0      0.7728E-01
   123.0      0.6830E-01
   124.0      0.6145E-01
   125.0      0.5648E-01
   126.0      0.5318E-01
   127.0      0.5131E-01
   128.0      0.5065E-01
   129.0      0.5099E-01
   130.0      0.5211E-01
   131.0      0.5383E-01
   132.0      0.5597E-01
   133.0      0.5836E-01
   134.0      0.6087E-01
   135.0      0.6337E-01
   136.0      0.6575E-01
   137.0      0.6792E-01
   138.0      0.6982E-01
   139.0      0.7138E-01
   140.0      0.7258E-01
   141.0      0.7339E-01
   142.0      0.7382E-01
   143.0      0.7386E-01
   144.0      0.7355E-01
   145.0      0.7291E-01
   146.0      0.7198E-01
   147.0      0.7082E-01
   148.0      0.6948E-01
   149.0      0.6801E-01
   150.0      0.6648E-01
   151.0      0.6495E-01
   152.0      0.6347E-01
   153.0      0.6211E-01
   154.0      0.6091E-01
   155.0      0.5992E-01
   156.0      0.5919E-01
   157.0      0.5874E-01
   158.0      0.5860E-01
   159.0      0.5879E-01
   160.0      0.5931E-01
   161.0      0.6017E-01
   162.0      0.6136E-01
   163.0      0.6286E-01
   164.0      0.6464E-01
   165.0      0.6668E-01
   166.0      0.6892E-01
   167.0      0.7134E-01
   168.0      0.7387E-01
   169.0      0.7647E-01
   170.0      0.7908E-01
   171.0      0.8165E-01
   172.0      0.8413E-01
   173.0      0.8645E-01
   174.0      0.8858E-01
   175.0      0.9047E-01
   176.0      0.9207E-01
   177.0      0.9335E-01
   178.0      0.9428E-01
   179.0      0.9485E-01
   180.0      0.9504E-01
 END
@legend string   1 "Partition=  2 Excit=  1 near/far= 1"
#legend string   0 "Lab energy =   35.0000"
@s1 linestyle   2
#  Theta       sigma       iT11        T20         T21         T22         Kyy for projectile
   0.000       12.95    
   1.000       12.92    
   2.000       12.81    
   3.000       12.65    
   4.000       12.44    
   5.000       12.20    
   6.000       11.93    
   7.000       11.66    
   8.000       11.40    
   9.000       11.14    
   10.00       10.89    
   11.00       10.65    
   12.00       10.41    
   13.00       10.16    
   14.00       9.890    
   15.00       9.588    
   16.00       9.246    
   17.00       8.858    
   18.00       8.422    
   19.00       7.938    
   20.00       7.412    
   21.00       6.851    
   22.00       6.267    
   23.00       5.672    
   24.00       5.082    
   25.00       4.508    
   26.00       3.967    
   27.00       3.468    
   28.00       3.023    
   29.00       2.638    
   30.00       2.320    
   31.00       2.069    
   32.00       1.887    
   33.00       1.770    
   34.00       1.713    
   35.00       1.709    
   36.00       1.752    
   37.00       1.832    
   38.00       1.940    
   39.00       2.068    
   40.00       2.206    
   41.00       2.346    
   42.00       2.482    
   43.00       2.607    
   44.00       2.717    
   45.00       2.807    
   46.00       2.875    
   47.00       2.919    
   48.00       2.940    
   49.00       2.938    
   50.00       2.914    
   51.00       2.871    
   52.00       2.810    
   53.00       2.734    
   54.00       2.648    
   55.00       2.552    
   56.00       2.451    
   57.00       2.348    
   58.00       2.243    
   59.00       2.141    
   60.00       2.042    
   61.00       1.949    
   62.00       1.861    
   63.00       1.780    
   64.00       1.707    
   65.00       1.641    
   66.00       1.582    
   67.00       1.529    
   68.00       1.483    
   69.00       1.443    
   70.00       1.407    
   71.00       1.375    
   72.00       1.346    
   73.00       1.319    
   74.00       1.293    
   75.00       1.268    
   76.00       1.244    
   77.00       1.219    
   78.00       1.193    
   79.00       1.166    
   80.00       1.138    
   81.00       1.108    
   82.00       1.077    
   83.00       1.044    
   84.00       1.011    
   85.00      0.9761    
   86.00      0.9406    
   87.00      0.9045    
   88.00      0.8681    
   89.00      0.8317    
   90.00      0.7955    
   91.00      0.7598    
   92.00      0.7248    
   93.00      0.6907    
   94.00      0.6578    
   95.00      0.6261    
   96.00      0.5958    
   97.00      0.5670    
   98.00      0.5398    
   99.00      0.5141    
   100.0      0.4900    
   101.0      0.4676    
   102.0      0.4466    
   103.0      0.4272    
   104.0      0.4092    
   105.0      0.3926    
   106.0      0.3773    
   107.0      0.3632    
   108.0      0.3502    
   109.0      0.3383    
   110.0      0.3272    
   111.0      0.3170    
   112.0      0.3075    
   113.0      0.2987    
   114.0      0.2904    
   115.0      0.2826    
   116.0      0.2752    
   117.0      0.2681    
   118.0      0.2612    
   119.0      0.2545    
   120.0      0.2480    
   121.0      0.2415    
   122.0      0.2350    
   123.0      0.2285    
   124.0      0.2220    
   125.0      0.2154    
   126.0      0.2088    
   127.0      0.2021    
   128.0      0.1953    
   129.0      0.1885    
   130.0      0.1817    
   131.0      0.1749    
   132.0      0.1682    
   133.0      0.1616    
   134.0      0.1552    
   135.0      0.1490    
   136.0      0.1430    
   137.0      0.1373    
   138.0      0.1320    
   139.0      0.1271    
   140.0      0.1227    
   141.0      0.1187    
   142.0      0.1152    
   143.0      0.1122    
   144.0      0.1097    
   145.0      0.1078    
   146.0      0.1063    
   147.0      0.1054    
   148.0      0.1050    
   149.0      0.1050    
   150.0      0.1055    
   151.0      0.1063    
   152.0      0.1076    
   153.0      0.1091    
   154.0      0.1110    
   155.0      0.1131    
   156.0      0.1155    
   157.0      0.1180    
   158.0      0.1207    
   159.0      0.1235    
   160.0      0.1265    
   161.0      0.1295    
   162.0      0.1325    
   163.0      0.1356    
   164.0      0.1386    
   165.0      0.1417    
   166.0      0.1447    
   167.0      0.1476    
   168.0      0.1505    
   169.0      0.1532    
   170.0      0.1558    
   171.0      0.1582    
   172.0      0.1604    
   173.0      0.1625    
   174.0      0.1643    
   175.0      0.1659    
   176.0      0.1672    
   177.0      0.1682    
   178.0      0.1690    
   179.0      0.1695    
   180.0      0.1696    
 END
