# 178 angles,  1 tensor ranks for 0=projectile
@subtitle   "p+O20 with Konig-Delaroche;"                                                   
@legend ON
@legend x1 0.2
@legend y1 0.8
@g0 type LOGY
@yaxis ticklabel format power
@xaxis label "Scattering angle (degrees)"
@yaxis label "Cross section (mb/sr)"
@legend string   0 "Partition=  1 Excit=  1 near/far= 1"
#legend string   0 "Lab energy =   35.0000"
@s0 linestyle   1
#  Theta       sigma       iT11        T20         T21         T22         Kyy for projectile
   3.000      0.1292E+06
   4.000      0.3659E+05
   5.000      0.1382E+05
   6.000       6630.    
   7.000       3971.    
   8.000       2868.    
   9.000       2360.    
   10.00       2092.    
   11.00       1925.    
   12.00       1798.    
   13.00       1687.    
   14.00       1580.    
   15.00       1474.    
   16.00       1367.    
   17.00       1260.    
   18.00       1153.    
   19.00       1048.    
   20.00       946.0    
   21.00       847.9    
   22.00       754.5    
   23.00       666.6    
   24.00       584.6    
   25.00       508.9    
   26.00       439.7    
   27.00       377.0    
   28.00       320.9    
   29.00       271.0    
   30.00       227.2    
   31.00       189.3    
   32.00       156.7    
   33.00       129.1    
   34.00       106.1    
   35.00       87.24    
   36.00       72.04    
   37.00       60.06    
   38.00       50.87    
   39.00       44.06    
   40.00       39.23    
   41.00       36.04    
   42.00       34.14    
   43.00       33.25    
   44.00       33.10    
   45.00       33.47    
   46.00       34.16    
   47.00       35.01    
   48.00       35.89    
   49.00       36.69    
   50.00       37.33    
   51.00       37.75    
   52.00       37.92    
   53.00       37.82    
   54.00       37.44    
   55.00       36.79    
   56.00       35.87    
   57.00       34.72    
   58.00       33.37    
   59.00       31.83    
   60.00       30.16    
   61.00       28.37    
   62.00       26.51    
   63.00       24.61    
   64.00       22.70    
   65.00       20.80    
   66.00       18.94    
   67.00       17.14    
   68.00       15.42    
   69.00       13.80    
   70.00       12.27    
   71.00       10.87    
   72.00       9.574    
   73.00       8.402    
   74.00       7.350    
   75.00       6.416    
   76.00       5.597    
   77.00       4.885    
   78.00       4.277    
   79.00       3.762    
   80.00       3.335    
   81.00       2.986    
   82.00       2.707    
   83.00       2.489    
   84.00       2.324    
   85.00       2.203    
   86.00       2.120    
   87.00       2.066    
   88.00       2.036    
   89.00       2.023    
   90.00       2.023    
   91.00       2.029    
   92.00       2.039    
   93.00       2.049    
   94.00       2.057    
   95.00       2.059    
   96.00       2.055    
   97.00       2.043    
   98.00       2.023    
   99.00       1.994    
   100.0       1.956    
   101.0       1.909    
   102.0       1.854    
   103.0       1.792    
   104.0       1.723    
   105.0       1.648    
   106.0       1.569    
   107.0       1.486    
   108.0       1.401    
   109.0       1.314    
   110.0       1.226    
   111.0       1.139    
   112.0       1.053    
   113.0      0.9688    
   114.0      0.8875    
   115.0      0.8096    
   116.0      0.7355    
   117.0      0.6656    
   118.0      0.6002    
   119.0      0.5397    
   120.0      0.4840    
   121.0      0.4333    
   122.0      0.3875    
   123.0      0.3465    
   124.0      0.3102    
   125.0      0.2783    
   126.0      0.2507    
   127.0      0.2270    
   128.0      0.2070    
   129.0      0.1903    
   130.0      0.1765    
   131.0      0.1654    
   132.0      0.1566    
   133.0      0.1498    
   134.0      0.1447    
   135.0      0.1409    
   136.0      0.1383    
   137.0      0.1366    
   138.0      0.1355    
   139.0      0.1349    
   140.0      0.1346    
   141.0      0.1345    
   142.0      0.1345    
   143.0      0.1346    
   144.0      0.1347    
   145.0      0.1347    
   146.0      0.1348    
   147.0      0.1348    
   148.0      0.1349    
   149.0      0.1352    
   150.0      0.1356    
   151.0      0.1362    
   152.0      0.1371    
   153.0      0.1384    
   154.0      0.1402    
   155.0      0.1425    
   156.0      0.1453    
   157.0      0.1487    
   158.0      0.1527    
   159.0      0.1573    
   160.0      0.1626    
   161.0      0.1684    
   162.0      0.1748    
   163.0      0.1817    
   164.0      0.1891    
   165.0      0.1968    
   166.0      0.2048    
   167.0      0.2129    
   168.0      0.2211    
   169.0      0.2292    
   170.0      0.2372    
   171.0      0.2448    
   172.0      0.2521    
   173.0      0.2587    
   174.0      0.2648    
   175.0      0.2700    
   176.0      0.2745    
   177.0      0.2780    
   178.0      0.2806    
   179.0      0.2822    
   180.0      0.2827    
 END
@legend string   1 "Partition=  1 Excit=  2 near/far= 1"
#legend string   0 "Lab energy =   35.0000"
@s1 linestyle   2
#  Theta       sigma       iT11        T20         T21         T22         Kyy for projectile
   3.000       9.941    
   4.000       9.786    
   5.000       9.594    
   6.000       9.369    
   7.000       9.116    
   8.000       8.841    
   9.000       8.550    
   10.00       8.251    
   11.00       7.950    
   12.00       7.653    
   13.00       7.367    
   14.00       7.098    
   15.00       6.850    
   16.00       6.627    
   17.00       6.431    
   18.00       6.264    
   19.00       6.125    
   20.00       6.012    
   21.00       5.922    
   22.00       5.852    
   23.00       5.796    
   24.00       5.750    
   25.00       5.708    
   26.00       5.664    
   27.00       5.615    
   28.00       5.554    
   29.00       5.479    
   30.00       5.387    
   31.00       5.277    
   32.00       5.147    
   33.00       4.997    
   34.00       4.829    
   35.00       4.644    
   36.00       4.443    
   37.00       4.229    
   38.00       4.004    
   39.00       3.772    
   40.00       3.535    
   41.00       3.296    
   42.00       3.058    
   43.00       2.824    
   44.00       2.597    
   45.00       2.378    
   46.00       2.171    
   47.00       1.977    
   48.00       1.797    
   49.00       1.635    
   50.00       1.489    
   51.00       1.362    
   52.00       1.253    
   53.00       1.162    
   54.00       1.089    
   55.00       1.032    
   56.00      0.9910    
   57.00      0.9638    
   58.00      0.9487    
   59.00      0.9440    
   60.00      0.9476    
   61.00      0.9577    
   62.00      0.9723    
   63.00      0.9896    
   64.00       1.008    
   65.00       1.026    
   66.00       1.043    
   67.00       1.058    
   68.00       1.069    
   69.00       1.076    
   70.00       1.078    
   71.00       1.076    
   72.00       1.069    
   73.00       1.057    
   74.00       1.040    
   75.00       1.018    
   76.00      0.9913    
   77.00      0.9606    
   78.00      0.9261    
   79.00      0.8882    
   80.00      0.8473    
   81.00      0.8041    
   82.00      0.7591    
   83.00      0.7129    
   84.00      0.6660    
   85.00      0.6191    
   86.00      0.5727    
   87.00      0.5273    
   88.00      0.4834    
   89.00      0.4413    
   90.00      0.4015    
   91.00      0.3640    
   92.00      0.3293    
   93.00      0.2972    
   94.00      0.2680    
   95.00      0.2416    
   96.00      0.2179    
   97.00      0.1970    
   98.00      0.1787    
   99.00      0.1629    
   100.0      0.1494    
   101.0      0.1381    
   102.0      0.1288    
   103.0      0.1214    
   104.0      0.1157    
   105.0      0.1114    
   106.0      0.1085    
   107.0      0.1067    
   108.0      0.1059    
   109.0      0.1059    
   110.0      0.1064    
   111.0      0.1074    
   112.0      0.1087    
   113.0      0.1102    
   114.0      0.1117    
   115.0      0.1131    
   116.0      0.1144    
   117.0      0.1155    
   118.0      0.1163    
   119.0      0.1169    
   120.0      0.1171    
   121.0      0.1170    
   122.0      0.1165    
   123.0      0.1157    
   124.0      0.1146    
   125.0      0.1132    
   126.0      0.1115    
   127.0      0.1094    
   128.0      0.1071    
   129.0      0.1045    
   130.0      0.1017    
   131.0      0.9862E-01
   132.0      0.9534E-01
   133.0      0.9188E-01
   134.0      0.8826E-01
   135.0      0.8452E-01
   136.0      0.8068E-01
   137.0      0.7678E-01
   138.0      0.7283E-01
   139.0      0.6887E-01
   140.0      0.6493E-01
   141.0      0.6101E-01
   142.0      0.5715E-01
   143.0      0.5335E-01
   144.0      0.4964E-01
   145.0      0.4603E-01
   146.0      0.4254E-01
   147.0      0.3917E-01
   148.0      0.3594E-01
   149.0      0.3287E-01
   150.0      0.2996E-01
   151.0      0.2723E-01
   152.0      0.2468E-01
   153.0      0.2234E-01
   154.0      0.2021E-01
   155.0      0.1830E-01
   156.0      0.1661E-01
   157.0      0.1513E-01
   158.0      0.1387E-01
   159.0      0.1282E-01
   160.0      0.1197E-01
   161.0      0.1130E-01
   162.0      0.1080E-01
   163.0      0.1046E-01
   164.0      0.1026E-01
   165.0      0.1019E-01
   166.0      0.1024E-01
   167.0      0.1038E-01
   168.0      0.1062E-01
   169.0      0.1093E-01
   170.0      0.1131E-01
   171.0      0.1173E-01
   172.0      0.1217E-01
   173.0      0.1262E-01
   174.0      0.1306E-01
   175.0      0.1347E-01
   176.0      0.1384E-01
   177.0      0.1414E-01
   178.0      0.1436E-01
   179.0      0.1450E-01
   180.0      0.1454E-01
 END
