# 178 angles,  1 tensor ranks for 0=projectile
@subtitle   "20O + d Ex 8.575 3-;"                                                          
@legend ON
@legend x1 0.2
@legend y1 0.8
@g0 type LOGY
@yaxis ticklabel format power
@xaxis label "Scattering angle (degrees)"
@yaxis label "Cross section (mb/sr)"
@legend string   0 "Partition=  1 Excit=  1 near/far= 1"
#legend string   0 "Lab energy =   70.0000"
@s0 linestyle   1
#  Theta       sigma       iT11        T20         T21         T22         Kyy for projectile
   3.000      0.2747E+05
   4.000      0.1164E+05
   5.000       8258.    
   6.000       6767.    
   7.000       5561.    
   8.000       4413.    
   9.000       3344.    
   10.00       2404.    
   11.00       1627.    
   12.00       1024.    
   13.00       589.5    
   14.00       301.4    
   15.00       132.3    
   16.00       51.76    
   17.00       31.14    
   18.00       45.74    
   19.00       76.25    
   20.00       109.0    
   21.00       135.6    
   22.00       152.0    
   23.00       157.2    
   24.00       152.5    
   25.00       140.4    
   26.00       123.6    
   27.00       104.9    
   28.00       86.24    
   29.00       69.31    
   30.00       54.98    
   31.00       43.62    
   32.00       35.14    
   33.00       29.20    
   34.00       25.27    
   35.00       22.82    
   36.00       21.30    
   37.00       20.28    
   38.00       19.43    
   39.00       18.54    
   40.00       17.47    
   41.00       16.20    
   42.00       14.73    
   43.00       13.14    
   44.00       11.49    
   45.00       9.857    
   46.00       8.311    
   47.00       6.906    
   48.00       5.674    
   49.00       4.632    
   50.00       3.782    
   51.00       3.111    
   52.00       2.599    
   53.00       2.221    
   54.00       1.948    
   55.00       1.754    
   56.00       1.614    
   57.00       1.509    
   58.00       1.421    
   59.00       1.340    
   60.00       1.257    
   61.00       1.170    
   62.00       1.076    
   63.00      0.9778    
   64.00      0.8763    
   65.00      0.7750    
   66.00      0.6768    
   67.00      0.5844    
   68.00      0.5000    
   69.00      0.4251    
   70.00      0.3605    
   71.00      0.3062    
   72.00      0.2617    
   73.00      0.2261    
   74.00      0.1982    
   75.00      0.1765    
   76.00      0.1598    
   77.00      0.1465    
   78.00      0.1357    
   79.00      0.1263    
   80.00      0.1176    
   81.00      0.1091    
   82.00      0.1006    
   83.00      0.9182E-01
   84.00      0.8289E-01
   85.00      0.7390E-01
   86.00      0.6504E-01
   87.00      0.5650E-01
   88.00      0.4847E-01
   89.00      0.4112E-01
   90.00      0.3456E-01
   91.00      0.2886E-01
   92.00      0.2406E-01
   93.00      0.2012E-01
   94.00      0.1698E-01
   95.00      0.1456E-01
   96.00      0.1274E-01
   97.00      0.1142E-01
   98.00      0.1047E-01
   99.00      0.9791E-02
   100.0      0.9282E-02
   101.0      0.8867E-02
   102.0      0.8485E-02
   103.0      0.8093E-02
   104.0      0.7663E-02
   105.0      0.7185E-02
   106.0      0.6657E-02
   107.0      0.6087E-02
   108.0      0.5489E-02
   109.0      0.4880E-02
   110.0      0.4276E-02
   111.0      0.3695E-02
   112.0      0.3151E-02
   113.0      0.2653E-02
   114.0      0.2210E-02
   115.0      0.1825E-02
   116.0      0.1500E-02
   117.0      0.1230E-02
   118.0      0.1014E-02
   119.0      0.8434E-03
   120.0      0.7132E-03
   121.0      0.6161E-03
   122.0      0.5452E-03
   123.0      0.4941E-03
   124.0      0.4573E-03
   125.0      0.4301E-03
   126.0      0.4087E-03
   127.0      0.3902E-03
   128.0      0.3725E-03
   129.0      0.3545E-03
   130.0      0.3353E-03
   131.0      0.3148E-03
   132.0      0.2931E-03
   133.0      0.2705E-03
   134.0      0.2476E-03
   135.0      0.2247E-03
   136.0      0.2025E-03
   137.0      0.1814E-03
   138.0      0.1616E-03
   139.0      0.1435E-03
   140.0      0.1273E-03
   141.0      0.1130E-03
   142.0      0.1006E-03
   143.0      0.9013E-04
   144.0      0.8140E-04
   145.0      0.7433E-04
   146.0      0.6878E-04
   147.0      0.6462E-04
   148.0      0.6172E-04
   149.0      0.5999E-04
   150.0      0.5934E-04
   151.0      0.5970E-04
   152.0      0.6101E-04
   153.0      0.6320E-04
   154.0      0.6622E-04
   155.0      0.6996E-04
   156.0      0.7432E-04
   157.0      0.7913E-04
   158.0      0.8421E-04
   159.0      0.8934E-04
   160.0      0.9426E-04
   161.0      0.9868E-04
   162.0      0.1023E-03
   163.0      0.1050E-03
   164.0      0.1063E-03
   165.0      0.1063E-03
   166.0      0.1046E-03
   167.0      0.1013E-03
   168.0      0.9643E-04
   169.0      0.9009E-04
   170.0      0.8249E-04
   171.0      0.7392E-04
   172.0      0.6471E-04
   173.0      0.5525E-04
   174.0      0.4596E-04
   175.0      0.3724E-04
   176.0      0.2948E-04
   177.0      0.2304E-04
   178.0      0.1822E-04
   179.0      0.1524E-04
   180.0      0.1423E-04
 END
@legend string   1 "Partition=  1 Excit=  2 near/far= 1"
#legend string   0 "Lab energy =   70.0000"
@s1 linestyle   2
#  Theta       sigma       iT11        T20         T21         T22         Kyy for projectile
   3.000       13.90    
   4.000       16.49    
   5.000       19.25    
   6.000       21.93    
   7.000       24.35    
   8.000       26.47    
   9.000       28.35    
   10.00       30.15    
   11.00       32.02    
   12.00       34.06    
   13.00       36.28    
   14.00       38.56    
   15.00       40.71    
   16.00       42.46    
   17.00       43.54    
   18.00       43.72    
   19.00       42.86    
   20.00       40.94    
   21.00       38.05    
   22.00       34.41    
   23.00       30.28    
   24.00       25.99    
   25.00       21.84    
   26.00       18.09    
   27.00       14.94    
   28.00       12.51    
   29.00       10.84    
   30.00       9.860    
   31.00       9.476    
   32.00       9.537    
   33.00       9.876    
   34.00       10.33    
   35.00       10.76    
   36.00       11.06    
   37.00       11.16    
   38.00       11.02    
   39.00       10.64    
   40.00       10.07    
   41.00       9.335    
   42.00       8.507    
   43.00       7.641    
   44.00       6.793    
   45.00       6.005    
   46.00       5.306    
   47.00       4.714    
   48.00       4.232    
   49.00       3.853    
   50.00       3.562    
   51.00       3.340    
   52.00       3.166    
   53.00       3.020    
   54.00       2.884    
   55.00       2.745    
   56.00       2.595    
   57.00       2.428    
   58.00       2.245    
   59.00       2.049    
   60.00       1.844    
   61.00       1.636    
   62.00       1.433    
   63.00       1.240    
   64.00       1.062    
   65.00      0.9028    
   66.00      0.7642    
   67.00      0.6470    
   68.00      0.5505    
   69.00      0.4729    
   70.00      0.4119    
   71.00      0.3646    
   72.00      0.3282    
   73.00      0.2999    
   74.00      0.2771    
   75.00      0.2577    
   76.00      0.2403    
   77.00      0.2236    
   78.00      0.2070    
   79.00      0.1901    
   80.00      0.1730    
   81.00      0.1559    
   82.00      0.1390    
   83.00      0.1227    
   84.00      0.1074    
   85.00      0.9336E-01
   86.00      0.8079E-01
   87.00      0.6981E-01
   88.00      0.6042E-01
   89.00      0.5258E-01
   90.00      0.4614E-01
   91.00      0.4095E-01
   92.00      0.3680E-01
   93.00      0.3348E-01
   94.00      0.3078E-01
   95.00      0.2853E-01
   96.00      0.2657E-01
   97.00      0.2478E-01
   98.00      0.2308E-01
   99.00      0.2141E-01
   100.0      0.1974E-01
   101.0      0.1806E-01
   102.0      0.1640E-01
   103.0      0.1477E-01
   104.0      0.1320E-01
   105.0      0.1173E-01
   106.0      0.1036E-01
   107.0      0.9129E-02
   108.0      0.8040E-02
   109.0      0.7101E-02
   110.0      0.6310E-02
   111.0      0.5658E-02
   112.0      0.5132E-02
   113.0      0.4716E-02
   114.0      0.4390E-02
   115.0      0.4137E-02
   116.0      0.3935E-02
   117.0      0.3767E-02
   118.0      0.3618E-02
   119.0      0.3475E-02
   120.0      0.3329E-02
   121.0      0.3176E-02
   122.0      0.3012E-02
   123.0      0.2836E-02
   124.0      0.2649E-02
   125.0      0.2454E-02
   126.0      0.2253E-02
   127.0      0.2051E-02
   128.0      0.1850E-02
   129.0      0.1656E-02
   130.0      0.1472E-02
   131.0      0.1302E-02
   132.0      0.1147E-02
   133.0      0.1010E-02
   134.0      0.8913E-03
   135.0      0.7895E-03
   136.0      0.7044E-03
   137.0      0.6346E-03
   138.0      0.5784E-03
   139.0      0.5338E-03
   140.0      0.4987E-03
   141.0      0.4716E-03
   142.0      0.4513E-03
   143.0      0.4364E-03
   144.0      0.4252E-03
   145.0      0.4158E-03
   146.0      0.4061E-03
   147.0      0.3953E-03
   148.0      0.3830E-03
   149.0      0.3697E-03
   150.0      0.3561E-03
   151.0      0.3421E-03
   152.0      0.3278E-03
   153.0      0.3126E-03
   154.0      0.2966E-03
   155.0      0.2800E-03
   156.0      0.2633E-03
   157.0      0.2469E-03
   158.0      0.2312E-03
   159.0      0.2165E-03
   160.0      0.2029E-03
   161.0      0.1906E-03
   162.0      0.1795E-03
   163.0      0.1696E-03
   164.0      0.1606E-03
   165.0      0.1523E-03
   166.0      0.1450E-03
   167.0      0.1385E-03
   168.0      0.1331E-03
   169.0      0.1286E-03
   170.0      0.1250E-03
   171.0      0.1223E-03
   172.0      0.1204E-03
   173.0      0.1192E-03
   174.0      0.1184E-03
   175.0      0.1177E-03
   176.0      0.1168E-03
   177.0      0.1155E-03
   178.0      0.1141E-03
   179.0      0.1129E-03
   180.0      0.1124E-03
 END
