# 178 angles,  1 tensor ranks for 0=projectile
@subtitle   "20O + d gs with DA1p OMP;"                                                     
@legend ON
@legend x1 0.2
@legend y1 0.8
@g0 type LOGY
@yaxis ticklabel format power
@xaxis label "Scattering angle (degrees)"
@yaxis label "Cross section (mb/sr)"
@legend string   0 "Partition=  1 Excit=  1 near/far= 1"
#legend string   0 "Lab energy =   70.0000"
@s0 linestyle   1
#  Theta       sigma       iT11        T20         T21         T22         Kyy for projectile
   3.000      0.2751E+05
   4.000      0.1096E+05
   5.000       7490.    
   6.000       6116.    
   7.000       5092.    
   8.000       4127.    
   9.000       3213.    
   10.00       2388.    
   11.00       1683.    
   12.00       1116.    
   13.00       687.5    
   14.00       386.9    
   15.00       195.3    
   16.00       90.14    
   17.00       47.90    
   18.00       46.99    
   19.00       69.12    
   20.00       100.1    
   21.00       130.1    
   22.00       153.0    
   23.00       166.1    
   24.00       169.2    
   25.00       163.4    
   26.00       151.0    
   27.00       134.5    
   28.00       116.1    
   29.00       98.02    
   30.00       81.48    
   31.00       67.39    
   32.00       56.13    
   33.00       47.66    
   34.00       41.66    
   35.00       37.65    
   36.00       35.10    
   37.00       33.48    
   38.00       32.34    
   39.00       31.33    
   40.00       30.21    
   41.00       28.85    
   42.00       27.19    
   43.00       25.25    
   44.00       23.11    
   45.00       20.84    
   46.00       18.54    
   47.00       16.31    
   48.00       14.21    
   49.00       12.29    
   50.00       10.60    
   51.00       9.135    
   52.00       7.899    
   53.00       6.873    
   54.00       6.032    
   55.00       5.346    
   56.00       4.787    
   57.00       4.324    
   58.00       3.933    
   59.00       3.592    
   60.00       3.287    
   61.00       3.006    
   62.00       2.740    
   63.00       2.488    
   64.00       2.246    
   65.00       2.015    
   66.00       1.797    
   67.00       1.593    
   68.00       1.404    
   69.00       1.232    
   70.00       1.078    
   71.00      0.9416    
   72.00      0.8221    
   73.00      0.7188    
   74.00      0.6303    
   75.00      0.5550    
   76.00      0.4911    
   77.00      0.4369    
   78.00      0.3908    
   79.00      0.3513    
   80.00      0.3171    
   81.00      0.2870    
   82.00      0.2602    
   83.00      0.2360    
   84.00      0.2138    
   85.00      0.1935    
   86.00      0.1746    
   87.00      0.1571    
   88.00      0.1409    
   89.00      0.1260    
   90.00      0.1122    
   91.00      0.9969E-01
   92.00      0.8836E-01
   93.00      0.7817E-01
   94.00      0.6910E-01
   95.00      0.6107E-01
   96.00      0.5402E-01
   97.00      0.4787E-01
   98.00      0.4252E-01
   99.00      0.3789E-01
   100.0      0.3388E-01
   101.0      0.3041E-01
   102.0      0.2740E-01
   103.0      0.2477E-01
   104.0      0.2247E-01
   105.0      0.2043E-01
   106.0      0.1862E-01
   107.0      0.1698E-01
   108.0      0.1550E-01
   109.0      0.1414E-01
   110.0      0.1289E-01
   111.0      0.1173E-01
   112.0      0.1066E-01
   113.0      0.9673E-02
   114.0      0.8757E-02
   115.0      0.7911E-02
   116.0      0.7132E-02
   117.0      0.6420E-02
   118.0      0.5771E-02
   119.0      0.5183E-02
   120.0      0.4653E-02
   121.0      0.4179E-02
   122.0      0.3756E-02
   123.0      0.3382E-02
   124.0      0.3052E-02
   125.0      0.2762E-02
   126.0      0.2508E-02
   127.0      0.2285E-02
   128.0      0.2089E-02
   129.0      0.1917E-02
   130.0      0.1764E-02
   131.0      0.1627E-02
   132.0      0.1503E-02
   133.0      0.1390E-02
   134.0      0.1285E-02
   135.0      0.1188E-02
   136.0      0.1096E-02
   137.0      0.1010E-02
   138.0      0.9292E-03
   139.0      0.8528E-03
   140.0      0.7814E-03
   141.0      0.7151E-03
   142.0      0.6542E-03
   143.0      0.5989E-03
   144.0      0.5493E-03
   145.0      0.5055E-03
   146.0      0.4670E-03
   147.0      0.4337E-03
   148.0      0.4049E-03
   149.0      0.3798E-03
   150.0      0.3577E-03
   151.0      0.3376E-03
   152.0      0.3186E-03
   153.0      0.3001E-03
   154.0      0.2812E-03
   155.0      0.2615E-03
   156.0      0.2408E-03
   157.0      0.2191E-03
   158.0      0.1967E-03
   159.0      0.1743E-03
   160.0      0.1525E-03
   161.0      0.1324E-03
   162.0      0.1151E-03
   163.0      0.1017E-03
   164.0      0.9309E-04
   165.0      0.9030E-04
   166.0      0.9395E-04
   167.0      0.1044E-03
   168.0      0.1217E-03
   169.0      0.1454E-03
   170.0      0.1749E-03
   171.0      0.2091E-03
   172.0      0.2465E-03
   173.0      0.2856E-03
   174.0      0.3245E-03
   175.0      0.3614E-03
   176.0      0.3946E-03
   177.0      0.4222E-03
   178.0      0.4431E-03
   179.0      0.4560E-03
   180.0      0.4604E-03
 END
