# 178 angles,  1 tensor ranks for 0=projectile
@subtitle   "20O + d Ex 7.639 3-;"                                                          
@legend ON
@legend x1 0.2
@legend y1 0.8
@g0 type LOGY
@yaxis ticklabel format power
@xaxis label "Scattering angle (degrees)"
@yaxis label "Cross section (mb/sr)"
@legend string   0 "Partition=  1 Excit=  1 near/far= 1"
#legend string   0 "Lab energy =   70.0000"
@s0 linestyle   1
#  Theta       sigma       iT11        T20         T21         T22         Kyy for projectile
   3.000      0.2745E+05
   4.000      0.1163E+05
   5.000       8258.    
   6.000       6770.    
   7.000       5565.    
   8.000       4418.    
   9.000       3348.    
   10.00       2407.    
   11.00       1630.    
   12.00       1027.    
   13.00       591.2    
   14.00       302.7    
   15.00       133.2    
   16.00       52.50    
   17.00       31.74    
   18.00       46.26    
   19.00       76.74    
   20.00       109.5    
   21.00       136.1    
   22.00       152.5    
   23.00       157.8    
   24.00       153.2    
   25.00       141.1    
   26.00       124.3    
   27.00       105.6    
   28.00       86.97    
   29.00       70.04    
   30.00       55.70    
   31.00       44.32    
   32.00       35.82    
   33.00       29.85    
   34.00       25.90    
   35.00       23.40    
   36.00       21.85    
   37.00       20.79    
   38.00       19.91    
   39.00       18.98    
   40.00       17.87    
   41.00       16.56    
   42.00       15.07    
   43.00       13.44    
   44.00       11.76    
   45.00       10.10    
   46.00       8.525    
   47.00       7.092    
   48.00       5.834    
   49.00       4.769    
   50.00       3.896    
   51.00       3.204    
   52.00       2.674    
   53.00       2.279    
   54.00       1.992    
   55.00       1.787    
   56.00       1.637    
   57.00       1.524    
   58.00       1.431    
   59.00       1.345    
   60.00       1.260    
   61.00       1.171    
   62.00       1.076    
   63.00      0.9774    
   64.00      0.8762    
   65.00      0.7752    
   66.00      0.6775    
   67.00      0.5856    
   68.00      0.5016    
   69.00      0.4271    
   70.00      0.3627    
   71.00      0.3086    
   72.00      0.2642    
   73.00      0.2286    
   74.00      0.2005    
   75.00      0.1788    
   76.00      0.1618    
   77.00      0.1485    
   78.00      0.1374    
   79.00      0.1279    
   80.00      0.1190    
   81.00      0.1104    
   82.00      0.1017    
   83.00      0.9283E-01
   84.00      0.8379E-01
   85.00      0.7472E-01
   86.00      0.6578E-01
   87.00      0.5718E-01
   88.00      0.4910E-01
   89.00      0.4171E-01
   90.00      0.3512E-01
   91.00      0.2940E-01
   92.00      0.2457E-01
   93.00      0.2062E-01
   94.00      0.1747E-01
   95.00      0.1504E-01
   96.00      0.1322E-01
   97.00      0.1189E-01
   98.00      0.1093E-01
   99.00      0.1024E-01
   100.0      0.9715E-02
   101.0      0.9285E-02
   102.0      0.8885E-02
   103.0      0.8472E-02
   104.0      0.8020E-02
   105.0      0.7517E-02
   106.0      0.6963E-02
   107.0      0.6366E-02
   108.0      0.5741E-02
   109.0      0.5106E-02
   110.0      0.4477E-02
   111.0      0.3872E-02
   112.0      0.3306E-02
   113.0      0.2789E-02
   114.0      0.2329E-02
   115.0      0.1930E-02
   116.0      0.1592E-02
   117.0      0.1314E-02
   118.0      0.1091E-02
   119.0      0.9161E-03
   120.0      0.7834E-03
   121.0      0.6853E-03
   122.0      0.6145E-03
   123.0      0.5644E-03
   124.0      0.5290E-03
   125.0      0.5032E-03
   126.0      0.4830E-03
   127.0      0.4652E-03
   128.0      0.4476E-03
   129.0      0.4288E-03
   130.0      0.4081E-03
   131.0      0.3851E-03
   132.0      0.3601E-03
   133.0      0.3335E-03
   134.0      0.3058E-03
   135.0      0.2778E-03
   136.0      0.2499E-03
   137.0      0.2230E-03
   138.0      0.1975E-03
   139.0      0.1739E-03
   140.0      0.1524E-03
   141.0      0.1334E-03
   142.0      0.1170E-03
   143.0      0.1032E-03
   144.0      0.9190E-04
   145.0      0.8313E-04
   146.0      0.7669E-04
   147.0      0.7243E-04
   148.0      0.7014E-04
   149.0      0.6961E-04
   150.0      0.7063E-04
   151.0      0.7298E-04
   152.0      0.7642E-04
   153.0      0.8074E-04
   154.0      0.8572E-04
   155.0      0.9111E-04
   156.0      0.9669E-04
   157.0      0.1022E-03
   158.0      0.1074E-03
   159.0      0.1121E-03
   160.0      0.1161E-03
   161.0      0.1190E-03
   162.0      0.1207E-03
   163.0      0.1211E-03
   164.0      0.1200E-03
   165.0      0.1174E-03
   166.0      0.1132E-03
   167.0      0.1076E-03
   168.0      0.1005E-03
   169.0      0.9233E-04
   170.0      0.8319E-04
   171.0      0.7342E-04
   172.0      0.6335E-04
   173.0      0.5332E-04
   174.0      0.4371E-04
   175.0      0.3487E-04
   176.0      0.2713E-04
   177.0      0.2079E-04
   178.0      0.1607E-04
   179.0      0.1317E-04
   180.0      0.1219E-04
 END
@legend string   1 "Partition=  1 Excit=  2 near/far= 1"
#legend string   0 "Lab energy =   70.0000"
@s1 linestyle   2
#  Theta       sigma       iT11        T20         T21         T22         Kyy for projectile
   3.000       12.85    
   4.000       15.42    
   5.000       18.23    
   6.000       20.99    
   7.000       23.48    
   8.000       25.61    
   9.000       27.45    
   10.00       29.18    
   11.00       30.97    
   12.00       32.97    
   13.00       35.18    
   14.00       37.52    
   15.00       39.76    
   16.00       41.63    
   17.00       42.83    
   18.00       43.13    
   19.00       42.36    
   20.00       40.50    
   21.00       37.65    
   22.00       34.03    
   23.00       29.92    
   24.00       25.64    
   25.00       21.51    
   26.00       17.79    
   27.00       14.69    
   28.00       12.31    
   29.00       10.70    
   30.00       9.786    
   31.00       9.465    
   32.00       9.578    
   33.00       9.956    
   34.00       10.43    
   35.00       10.87    
   36.00       11.15    
   37.00       11.22    
   38.00       11.04    
   39.00       10.63    
   40.00       10.01    
   41.00       9.244    
   42.00       8.387    
   43.00       7.500    
   44.00       6.639    
   45.00       5.847    
   46.00       5.151    
   47.00       4.566    
   48.00       4.095    
   49.00       3.727    
   50.00       3.446    
   51.00       3.234    
   52.00       3.067    
   53.00       2.926    
   54.00       2.793    
   55.00       2.654    
   56.00       2.503    
   57.00       2.335    
   58.00       2.151    
   59.00       1.954    
   60.00       1.750    
   61.00       1.545    
   62.00       1.345    
   63.00       1.157    
   64.00      0.9858    
   65.00      0.8336    
   66.00      0.7025    
   67.00      0.5928    
   68.00      0.5035    
   69.00      0.4328    
   70.00      0.3778    
   71.00      0.3356    
   72.00      0.3033    
   73.00      0.2783    
   74.00      0.2580    
   75.00      0.2405    
   76.00      0.2244    
   77.00      0.2086    
   78.00      0.1926    
   79.00      0.1763    
   80.00      0.1597    
   81.00      0.1431    
   82.00      0.1268    
   83.00      0.1113    
   84.00      0.9682E-01
   85.00      0.8369E-01
   86.00      0.7209E-01
   87.00      0.6211E-01
   88.00      0.5371E-01
   89.00      0.4678E-01
   90.00      0.4118E-01
   91.00      0.3673E-01
   92.00      0.3322E-01
   93.00      0.3044E-01
   94.00      0.2818E-01
   95.00      0.2625E-01
   96.00      0.2454E-01
   97.00      0.2293E-01
   98.00      0.2135E-01
   99.00      0.1977E-01
   100.0      0.1816E-01
   101.0      0.1653E-01
   102.0      0.1491E-01
   103.0      0.1334E-01
   104.0      0.1183E-01
   105.0      0.1043E-01
   106.0      0.9154E-02
   107.0      0.8018E-02
   108.0      0.7034E-02
   109.0      0.6204E-02
   110.0      0.5522E-02
   111.0      0.4974E-02
   112.0      0.4544E-02
   113.0      0.4216E-02
   114.0      0.3970E-02
   115.0      0.3789E-02
   116.0      0.3649E-02
   117.0      0.3530E-02
   118.0      0.3416E-02
   119.0      0.3297E-02
   120.0      0.3168E-02
   121.0      0.3025E-02
   122.0      0.2866E-02
   123.0      0.2692E-02
   124.0      0.2506E-02
   125.0      0.2311E-02
   126.0      0.2112E-02
   127.0      0.1912E-02
   128.0      0.1714E-02
   129.0      0.1523E-02
   130.0      0.1342E-02
   131.0      0.1177E-02
   132.0      0.1030E-02
   133.0      0.9033E-03
   134.0      0.7955E-03
   135.0      0.7059E-03
   136.0      0.6331E-03
   137.0      0.5754E-03
   138.0      0.5303E-03
   139.0      0.4951E-03
   140.0      0.4674E-03
   141.0      0.4463E-03
   142.0      0.4317E-03
   143.0      0.4233E-03
   144.0      0.4191E-03
   145.0      0.4161E-03
   146.0      0.4106E-03
   147.0      0.4011E-03
   148.0      0.3879E-03
   149.0      0.3730E-03
   150.0      0.3583E-03
   151.0      0.3444E-03
   152.0      0.3307E-03
   153.0      0.3159E-03
   154.0      0.2996E-03
   155.0      0.2820E-03
   156.0      0.2639E-03
   157.0      0.2461E-03
   158.0      0.2292E-03
   159.0      0.2137E-03
   160.0      0.2000E-03
   161.0      0.1882E-03
   162.0      0.1783E-03
   163.0      0.1698E-03
   164.0      0.1625E-03
   165.0      0.1559E-03
   166.0      0.1502E-03
   167.0      0.1456E-03
   168.0      0.1421E-03
   169.0      0.1398E-03
   170.0      0.1385E-03
   171.0      0.1383E-03
   172.0      0.1394E-03
   173.0      0.1416E-03
   174.0      0.1444E-03
   175.0      0.1466E-03
   176.0      0.1470E-03
   177.0      0.1454E-03
   178.0      0.1424E-03
   179.0      0.1396E-03
   180.0      0.1384E-03
 END
