# 181 angles,  1 tensor ranks for 0=projectile
@subtitle   "20O(p,d) @ 30AMeV CH89 (p) + ADWA (d) 2nd ex"                                  
@legend ON
@legend x1 0.2
@legend y1 0.8
@g0 type LOGY
@yaxis ticklabel format power
@xaxis label "Scattering angle (degrees)"
@yaxis label "Cross section (mb/sr)"
@legend string   0 "Partition=  1 Excit=  1 near/far= 1"
#legend string   0 "Lab energy =   35.0000"
@s0 linestyle   1
#  Theta       sigma       iT11        T20         T21         T22         Kyy for projectile
  0.1000E-01  0.1288E+16
   1.000      0.1252E+08
   2.000      0.7271E+06
   3.000      0.1300E+06
   4.000      0.3716E+05
   5.000      0.1421E+05
   6.000       6905.    
   7.000       4165.    
   8.000       3003.    
   9.000       2448.    
   10.00       2143.    
   11.00       1945.    
   12.00       1792.    
   13.00       1658.    
   14.00       1533.    
   15.00       1411.    
   16.00       1291.    
   17.00       1173.    
   18.00       1058.    
   19.00       947.2    
   20.00       841.3    
   21.00       741.2    
   22.00       647.5    
   23.00       560.8    
   24.00       481.3    
   25.00       409.2    
   26.00       344.6    
   27.00       287.3    
   28.00       237.0    
   29.00       193.4    
   30.00       156.1    
   31.00       124.7    
   32.00       98.58    
   33.00       77.27    
   34.00       60.23    
   35.00       46.92    
   36.00       36.83    
   37.00       29.48    
   38.00       24.40    
   39.00       21.16    
   40.00       19.39    
   41.00       18.73    
   42.00       18.90    
   43.00       19.62    
   44.00       20.68    
   45.00       21.90    
   46.00       23.14    
   47.00       24.28    
   48.00       25.25    
   49.00       25.97    
   50.00       26.43    
   51.00       26.60    
   52.00       26.48    
   53.00       26.08    
   54.00       25.43    
   55.00       24.55    
   56.00       23.48    
   57.00       22.25    
   58.00       20.89    
   59.00       19.44    
   60.00       17.94    
   61.00       16.42    
   62.00       14.90    
   63.00       13.41    
   64.00       11.98    
   65.00       10.61    
   66.00       9.320    
   67.00       8.126    
   68.00       7.031    
   69.00       6.040    
   70.00       5.153    
   71.00       4.369    
   72.00       3.686    
   73.00       3.099    
   74.00       2.603    
   75.00       2.189    
   76.00       1.851    
   77.00       1.581    
   78.00       1.372    
   79.00       1.214    
   80.00       1.101    
   81.00       1.024    
   82.00      0.9780    
   83.00      0.9557    
   84.00      0.9514    
   85.00      0.9601    
   86.00      0.9773    
   87.00      0.9993    
   88.00       1.023    
   89.00       1.045    
   90.00       1.064    
   91.00       1.078    
   92.00       1.086    
   93.00       1.088    
   94.00       1.083    
   95.00       1.070    
   96.00       1.051    
   97.00       1.025    
   98.00      0.9925    
   99.00      0.9552    
   100.0      0.9132    
   101.0      0.8674    
   102.0      0.8185    
   103.0      0.7675    
   104.0      0.7151    
   105.0      0.6620    
   106.0      0.6090    
   107.0      0.5567    
   108.0      0.5056    
   109.0      0.4563    
   110.0      0.4092    
   111.0      0.3646    
   112.0      0.3228    
   113.0      0.2841    
   114.0      0.2485    
   115.0      0.2162    
   116.0      0.1872    
   117.0      0.1614    
   118.0      0.1388    
   119.0      0.1192    
   120.0      0.1026    
   121.0      0.8867E-01
   122.0      0.7733E-01
   123.0      0.6833E-01
   124.0      0.6146E-01
   125.0      0.5648E-01
   126.0      0.5317E-01
   127.0      0.5129E-01
   128.0      0.5062E-01
   129.0      0.5095E-01
   130.0      0.5206E-01
   131.0      0.5377E-01
   132.0      0.5591E-01
   133.0      0.5830E-01
   134.0      0.6081E-01
   135.0      0.6330E-01
   136.0      0.6568E-01
   137.0      0.6785E-01
   138.0      0.6974E-01
   139.0      0.7130E-01
   140.0      0.7250E-01
   141.0      0.7332E-01
   142.0      0.7374E-01
   143.0      0.7378E-01
   144.0      0.7347E-01
   145.0      0.7283E-01
   146.0      0.7191E-01
   147.0      0.7075E-01
   148.0      0.6941E-01
   149.0      0.6795E-01
   150.0      0.6642E-01
   151.0      0.6489E-01
   152.0      0.6342E-01
   153.0      0.6206E-01
   154.0      0.6086E-01
   155.0      0.5988E-01
   156.0      0.5915E-01
   157.0      0.5871E-01
   158.0      0.5857E-01
   159.0      0.5877E-01
   160.0      0.5930E-01
   161.0      0.6017E-01
   162.0      0.6137E-01
   163.0      0.6287E-01
   164.0      0.6466E-01
   165.0      0.6671E-01
   166.0      0.6896E-01
   167.0      0.7138E-01
   168.0      0.7392E-01
   169.0      0.7653E-01
   170.0      0.7915E-01
   171.0      0.8173E-01
   172.0      0.8421E-01
   173.0      0.8654E-01
   174.0      0.8867E-01
   175.0      0.9056E-01
   176.0      0.9216E-01
   177.0      0.9345E-01
   178.0      0.9439E-01
   179.0      0.9496E-01
   180.0      0.9515E-01
 END
@legend string   1 "Partition=  2 Excit=  1 near/far= 1"
#legend string   0 "Lab energy =   35.0000"
@s1 linestyle   2
#  Theta       sigma       iT11        T20         T21         T22         Kyy for projectile
   0.000       6.154    
   1.000       6.133    
   2.000       6.070    
   3.000       5.969    
   4.000       5.836    
   5.000       5.679    
   6.000       5.507    
   7.000       5.326    
   8.000       5.144    
   9.000       4.968    
   10.00       4.800    
   11.00       4.642    
   12.00       4.494    
   13.00       4.353    
   14.00       4.216    
   15.00       4.078    
   16.00       3.935    
   17.00       3.782    
   18.00       3.616    
   19.00       3.434    
   20.00       3.237    
   21.00       3.024    
   22.00       2.797    
   23.00       2.562    
   24.00       2.321    
   25.00       2.081    
   26.00       1.847    
   27.00       1.625    
   28.00       1.420    
   29.00       1.236    
   30.00       1.079    
   31.00      0.9489    
   32.00      0.8487    
   33.00      0.7784    
   34.00      0.7371    
   35.00      0.7230    
   36.00      0.7335    
   37.00      0.7651    
   38.00      0.8140    
   39.00      0.8761    
   40.00      0.9473    
   41.00       1.023    
   42.00       1.100    
   43.00       1.175    
   44.00       1.244    
   45.00       1.305    
   46.00       1.356    
   47.00       1.396    
   48.00       1.424    
   49.00       1.440    
   50.00       1.445    
   51.00       1.438    
   52.00       1.422    
   53.00       1.396    
   54.00       1.364    
   55.00       1.325    
   56.00       1.283    
   57.00       1.237    
   58.00       1.191    
   59.00       1.144    
   60.00       1.098    
   61.00       1.055    
   62.00       1.014    
   63.00      0.9759    
   64.00      0.9417    
   65.00      0.9112    
   66.00      0.8844    
   67.00      0.8611    
   68.00      0.8410    
   69.00      0.8237    
   70.00      0.8089    
   71.00      0.7961    
   72.00      0.7847    
   73.00      0.7743    
   74.00      0.7645    
   75.00      0.7548    
   76.00      0.7449    
   77.00      0.7344    
   78.00      0.7230    
   79.00      0.7107    
   80.00      0.6972    
   81.00      0.6825    
   82.00      0.6666    
   83.00      0.6496    
   84.00      0.6314    
   85.00      0.6124    
   86.00      0.5925    
   87.00      0.5721    
   88.00      0.5511    
   89.00      0.5300    
   90.00      0.5088    
   91.00      0.4877    
   92.00      0.4669    
   93.00      0.4465    
   94.00      0.4267    
   95.00      0.4076    
   96.00      0.3893    
   97.00      0.3719    
   98.00      0.3553    
   99.00      0.3397    
   100.0      0.3250    
   101.0      0.3112    
   102.0      0.2984    
   103.0      0.2864    
   104.0      0.2754    
   105.0      0.2651    
   106.0      0.2556    
   107.0      0.2467    
   108.0      0.2386    
   109.0      0.2310    
   110.0      0.2240    
   111.0      0.2174    
   112.0      0.2113    
   113.0      0.2055    
   114.0      0.2001    
   115.0      0.1949    
   116.0      0.1900    
   117.0      0.1853    
   118.0      0.1807    
   119.0      0.1762    
   120.0      0.1718    
   121.0      0.1675    
   122.0      0.1632    
   123.0      0.1588    
   124.0      0.1545    
   125.0      0.1501    
   126.0      0.1457    
   127.0      0.1412    
   128.0      0.1367    
   129.0      0.1322    
   130.0      0.1277    
   131.0      0.1231    
   132.0      0.1186    
   133.0      0.1142    
   134.0      0.1098    
   135.0      0.1055    
   136.0      0.1014    
   137.0      0.9751E-01
   138.0      0.9381E-01
   139.0      0.9037E-01
   140.0      0.8722E-01
   141.0      0.8437E-01
   142.0      0.8185E-01
   143.0      0.7967E-01
   144.0      0.7785E-01
   145.0      0.7640E-01
   146.0      0.7530E-01
   147.0      0.7457E-01
   148.0      0.7419E-01
   149.0      0.7414E-01
   150.0      0.7441E-01
   151.0      0.7498E-01
   152.0      0.7583E-01
   153.0      0.7694E-01
   154.0      0.7827E-01
   155.0      0.7981E-01
   156.0      0.8153E-01
   157.0      0.8341E-01
   158.0      0.8543E-01
   159.0      0.8756E-01
   160.0      0.8978E-01
   161.0      0.9207E-01
   162.0      0.9442E-01
   163.0      0.9680E-01
   164.0      0.9919E-01
   165.0      0.1016    
   166.0      0.1040    
   167.0      0.1063    
   168.0      0.1086    
   169.0      0.1108    
   170.0      0.1129    
   171.0      0.1148    
   172.0      0.1167    
   173.0      0.1184    
   174.0      0.1199    
   175.0      0.1212    
   176.0      0.1223    
   177.0      0.1231    
   178.0      0.1238    
   179.0      0.1241    
   180.0      0.1243    
 END
