# 181 angles,  1 tensor ranks for 0=projectile
@subtitle   "20O(p,d) @ 30AMeV CH89 (p) + ADWA (d) 2nd ex"                                  
@legend ON
@legend x1 0.2
@legend y1 0.8
@g0 type LOGY
@yaxis ticklabel format power
@xaxis label "Scattering angle (degrees)"
@yaxis label "Cross section (mb/sr)"
@legend string   0 "Partition=  1 Excit=  1 near/far= 1"
#legend string   0 "Lab energy =   35.0000"
@s0 linestyle   1
#  Theta       sigma       iT11        T20         T21         T22         Kyy for projectile
  0.1000E-01  0.1288E+16
   1.000      0.1252E+08
   2.000      0.7271E+06
   3.000      0.1300E+06
   4.000      0.3716E+05
   5.000      0.1421E+05
   6.000       6905.    
   7.000       4165.    
   8.000       3003.    
   9.000       2448.    
   10.00       2143.    
   11.00       1945.    
   12.00       1792.    
   13.00       1658.    
   14.00       1533.    
   15.00       1411.    
   16.00       1291.    
   17.00       1173.    
   18.00       1058.    
   19.00       947.2    
   20.00       841.3    
   21.00       741.2    
   22.00       647.5    
   23.00       560.8    
   24.00       481.3    
   25.00       409.2    
   26.00       344.6    
   27.00       287.3    
   28.00       237.0    
   29.00       193.4    
   30.00       156.1    
   31.00       124.7    
   32.00       98.58    
   33.00       77.27    
   34.00       60.23    
   35.00       46.92    
   36.00       36.83    
   37.00       29.48    
   38.00       24.40    
   39.00       21.16    
   40.00       19.39    
   41.00       18.73    
   42.00       18.90    
   43.00       19.62    
   44.00       20.68    
   45.00       21.90    
   46.00       23.14    
   47.00       24.28    
   48.00       25.25    
   49.00       25.97    
   50.00       26.43    
   51.00       26.60    
   52.00       26.48    
   53.00       26.08    
   54.00       25.43    
   55.00       24.55    
   56.00       23.48    
   57.00       22.25    
   58.00       20.89    
   59.00       19.44    
   60.00       17.94    
   61.00       16.42    
   62.00       14.90    
   63.00       13.41    
   64.00       11.98    
   65.00       10.61    
   66.00       9.320    
   67.00       8.126    
   68.00       7.031    
   69.00       6.040    
   70.00       5.153    
   71.00       4.369    
   72.00       3.686    
   73.00       3.099    
   74.00       2.603    
   75.00       2.189    
   76.00       1.851    
   77.00       1.581    
   78.00       1.372    
   79.00       1.214    
   80.00       1.101    
   81.00       1.024    
   82.00      0.9780    
   83.00      0.9557    
   84.00      0.9514    
   85.00      0.9601    
   86.00      0.9773    
   87.00      0.9993    
   88.00       1.023    
   89.00       1.045    
   90.00       1.064    
   91.00       1.078    
   92.00       1.086    
   93.00       1.088    
   94.00       1.083    
   95.00       1.070    
   96.00       1.051    
   97.00       1.025    
   98.00      0.9925    
   99.00      0.9552    
   100.0      0.9132    
   101.0      0.8674    
   102.0      0.8185    
   103.0      0.7675    
   104.0      0.7151    
   105.0      0.6620    
   106.0      0.6090    
   107.0      0.5567    
   108.0      0.5056    
   109.0      0.4563    
   110.0      0.4092    
   111.0      0.3646    
   112.0      0.3228    
   113.0      0.2841    
   114.0      0.2485    
   115.0      0.2162    
   116.0      0.1872    
   117.0      0.1614    
   118.0      0.1388    
   119.0      0.1192    
   120.0      0.1026    
   121.0      0.8867E-01
   122.0      0.7733E-01
   123.0      0.6833E-01
   124.0      0.6146E-01
   125.0      0.5648E-01
   126.0      0.5317E-01
   127.0      0.5129E-01
   128.0      0.5062E-01
   129.0      0.5095E-01
   130.0      0.5206E-01
   131.0      0.5377E-01
   132.0      0.5591E-01
   133.0      0.5830E-01
   134.0      0.6081E-01
   135.0      0.6330E-01
   136.0      0.6568E-01
   137.0      0.6785E-01
   138.0      0.6974E-01
   139.0      0.7130E-01
   140.0      0.7250E-01
   141.0      0.7332E-01
   142.0      0.7374E-01
   143.0      0.7378E-01
   144.0      0.7347E-01
   145.0      0.7283E-01
   146.0      0.7191E-01
   147.0      0.7075E-01
   148.0      0.6941E-01
   149.0      0.6795E-01
   150.0      0.6642E-01
   151.0      0.6489E-01
   152.0      0.6342E-01
   153.0      0.6206E-01
   154.0      0.6086E-01
   155.0      0.5988E-01
   156.0      0.5915E-01
   157.0      0.5871E-01
   158.0      0.5857E-01
   159.0      0.5877E-01
   160.0      0.5930E-01
   161.0      0.6017E-01
   162.0      0.6137E-01
   163.0      0.6287E-01
   164.0      0.6466E-01
   165.0      0.6671E-01
   166.0      0.6896E-01
   167.0      0.7138E-01
   168.0      0.7392E-01
   169.0      0.7653E-01
   170.0      0.7915E-01
   171.0      0.8173E-01
   172.0      0.8421E-01
   173.0      0.8654E-01
   174.0      0.8867E-01
   175.0      0.9056E-01
   176.0      0.9216E-01
   177.0      0.9345E-01
   178.0      0.9439E-01
   179.0      0.9496E-01
   180.0      0.9515E-01
 END
@legend string   1 "Partition=  2 Excit=  1 near/far= 1"
#legend string   0 "Lab energy =   35.0000"
@s1 linestyle   2
#  Theta       sigma       iT11        T20         T21         T22         Kyy for projectile
   0.000       35.41    
   1.000       34.95    
   2.000       33.61    
   3.000       31.46    
   4.000       28.65    
   5.000       25.32    
   6.000       21.68    
   7.000       17.93    
   8.000       14.24    
   9.000       10.81    
   10.00       7.780    
   11.00       5.251    
   12.00       3.294    
   13.00       1.938    
   14.00       1.169    
   15.00      0.9423    
   16.00       1.186    
   17.00       1.811    
   18.00       2.714    
   19.00       3.794    
   20.00       4.950    
   21.00       6.094    
   22.00       7.148    
   23.00       8.054    
   24.00       8.769    
   25.00       9.268    
   26.00       9.541    
   27.00       9.593    
   28.00       9.440    
   29.00       9.106    
   30.00       8.621    
   31.00       8.020    
   32.00       7.337    
   33.00       6.606    
   34.00       5.856    
   35.00       5.115    
   36.00       4.406    
   37.00       3.746    
   38.00       3.148    
   39.00       2.620    
   40.00       2.166    
   41.00       1.786    
   42.00       1.477    
   43.00       1.233    
   44.00       1.049    
   45.00      0.9165    
   46.00      0.8268    
   47.00      0.7716    
   48.00      0.7431    
   49.00      0.7338    
   50.00      0.7373    
   51.00      0.7479    
   52.00      0.7610    
   53.00      0.7732    
   54.00      0.7818    
   55.00      0.7849    
   56.00      0.7817    
   57.00      0.7716    
   58.00      0.7548    
   59.00      0.7318    
   60.00      0.7033    
   61.00      0.6701    
   62.00      0.6334    
   63.00      0.5942    
   64.00      0.5533    
   65.00      0.5117    
   66.00      0.4702    
   67.00      0.4294    
   68.00      0.3900    
   69.00      0.3523    
   70.00      0.3166    
   71.00      0.2832    
   72.00      0.2523    
   73.00      0.2238    
   74.00      0.1978    
   75.00      0.1742    
   76.00      0.1531    
   77.00      0.1342    
   78.00      0.1175    
   79.00      0.1028    
   80.00      0.9017E-01
   81.00      0.7937E-01
   82.00      0.7030E-01
   83.00      0.6286E-01
   84.00      0.5693E-01
   85.00      0.5241E-01
   86.00      0.4916E-01
   87.00      0.4708E-01
   88.00      0.4604E-01
   89.00      0.4590E-01
   90.00      0.4655E-01
   91.00      0.4785E-01
   92.00      0.4965E-01
   93.00      0.5184E-01
   94.00      0.5427E-01
   95.00      0.5682E-01
   96.00      0.5937E-01
   97.00      0.6181E-01
   98.00      0.6404E-01
   99.00      0.6598E-01
   100.0      0.6755E-01
   101.0      0.6870E-01
   102.0      0.6940E-01
   103.0      0.6962E-01
   104.0      0.6935E-01
   105.0      0.6861E-01
   106.0      0.6742E-01
   107.0      0.6582E-01
   108.0      0.6385E-01
   109.0      0.6156E-01
   110.0      0.5901E-01
   111.0      0.5626E-01
   112.0      0.5336E-01
   113.0      0.5038E-01
   114.0      0.4736E-01
   115.0      0.4437E-01
   116.0      0.4143E-01
   117.0      0.3858E-01
   118.0      0.3585E-01
   119.0      0.3327E-01
   120.0      0.3084E-01
   121.0      0.2858E-01
   122.0      0.2649E-01
   123.0      0.2457E-01
   124.0      0.2282E-01
   125.0      0.2124E-01
   126.0      0.1983E-01
   127.0      0.1858E-01
   128.0      0.1749E-01
   129.0      0.1656E-01
   130.0      0.1579E-01
   131.0      0.1519E-01
   132.0      0.1476E-01
   133.0      0.1450E-01
   134.0      0.1440E-01
   135.0      0.1448E-01
   136.0      0.1471E-01
   137.0      0.1510E-01
   138.0      0.1563E-01
   139.0      0.1627E-01
   140.0      0.1700E-01
   141.0      0.1780E-01
   142.0      0.1863E-01
   143.0      0.1944E-01
   144.0      0.2021E-01
   145.0      0.2088E-01
   146.0      0.2143E-01
   147.0      0.2180E-01
   148.0      0.2199E-01
   149.0      0.2195E-01
   150.0      0.2169E-01
   151.0      0.2118E-01
   152.0      0.2045E-01
   153.0      0.1951E-01
   154.0      0.1839E-01
   155.0      0.1712E-01
   156.0      0.1576E-01
   157.0      0.1436E-01
   158.0      0.1298E-01
   159.0      0.1169E-01
   160.0      0.1054E-01
   161.0      0.9604E-02
   162.0      0.8926E-02
   163.0      0.8551E-02
   164.0      0.8512E-02
   165.0      0.8827E-02
   166.0      0.9501E-02
   167.0      0.1052E-01
   168.0      0.1186E-01
   169.0      0.1349E-01
   170.0      0.1534E-01
   171.0      0.1735E-01
   172.0      0.1944E-01
   173.0      0.2155E-01
   174.0      0.2358E-01
   175.0      0.2546E-01
   176.0      0.2712E-01
   177.0      0.2848E-01
   178.0      0.2949E-01
   179.0      0.3012E-01
   180.0      0.3033E-01
 END
@legend string   2 "Partition=  2 Excit=  2 near/far= 1"
#legend string   0 "Lab energy =   35.0000"
@s2 linestyle   3
#  Theta       sigma       iT11        T20         T21         T22         Kyy for projectile
   0.000       3.460    
   1.000       3.513    
   2.000       3.667    
   3.000       3.908    
   4.000       4.214    
   5.000       4.558    
   6.000       4.909    
   7.000       5.236    
   8.000       5.510    
   9.000       5.706    
   10.00       5.806    
   11.00       5.798    
   12.00       5.681    
   13.00       5.456    
   14.00       5.137    
   15.00       4.738    
   16.00       4.280    
   17.00       3.786    
   18.00       3.276    
   19.00       2.774    
   20.00       2.296    
   21.00       1.860    
   22.00       1.477    
   23.00       1.153    
   24.00      0.8938    
   25.00      0.6977    
   26.00      0.5617    
   27.00      0.4799    
   28.00      0.4445    
   29.00      0.4467    
   30.00      0.4770    
   31.00      0.5262    
   32.00      0.5857    
   33.00      0.6479    
   34.00      0.7065    
   35.00      0.7563    
   36.00      0.7940    
   37.00      0.8173    
   38.00      0.8252    
   39.00      0.8181    
   40.00      0.7969    
   41.00      0.7636    
   42.00      0.7203    
   43.00      0.6696    
   44.00      0.6141    
   45.00      0.5563    
   46.00      0.4986    
   47.00      0.4431    
   48.00      0.3913    
   49.00      0.3446    
   50.00      0.3039    
   51.00      0.2696    
   52.00      0.2420    
   53.00      0.2208    
   54.00      0.2055    
   55.00      0.1957    
   56.00      0.1905    
   57.00      0.1889    
   58.00      0.1903    
   59.00      0.1936    
   60.00      0.1980    
   61.00      0.2029    
   62.00      0.2074    
   63.00      0.2112    
   64.00      0.2138    
   65.00      0.2148    
   66.00      0.2142    
   67.00      0.2119    
   68.00      0.2078    
   69.00      0.2022    
   70.00      0.1951    
   71.00      0.1868    
   72.00      0.1776    
   73.00      0.1676    
   74.00      0.1572    
   75.00      0.1467    
   76.00      0.1361    
   77.00      0.1259    
   78.00      0.1162    
   79.00      0.1070    
   80.00      0.9854E-01
   81.00      0.9088E-01
   82.00      0.8406E-01
   83.00      0.7808E-01
   84.00      0.7293E-01
   85.00      0.6857E-01
   86.00      0.6494E-01
   87.00      0.6197E-01
   88.00      0.5956E-01
   89.00      0.5764E-01
   90.00      0.5611E-01
   91.00      0.5488E-01
   92.00      0.5387E-01
   93.00      0.5299E-01
   94.00      0.5219E-01
   95.00      0.5140E-01
   96.00      0.5057E-01
   97.00      0.4967E-01
   98.00      0.4867E-01
   99.00      0.4754E-01
   100.0      0.4629E-01
   101.0      0.4491E-01
   102.0      0.4340E-01
   103.0      0.4178E-01
   104.0      0.4007E-01
   105.0      0.3827E-01
   106.0      0.3642E-01
   107.0      0.3452E-01
   108.0      0.3261E-01
   109.0      0.3070E-01
   110.0      0.2881E-01
   111.0      0.2696E-01
   112.0      0.2516E-01
   113.0      0.2342E-01
   114.0      0.2176E-01
   115.0      0.2019E-01
   116.0      0.1872E-01
   117.0      0.1734E-01
   118.0      0.1607E-01
   119.0      0.1490E-01
   120.0      0.1385E-01
   121.0      0.1290E-01
   122.0      0.1207E-01
   123.0      0.1134E-01
   124.0      0.1071E-01
   125.0      0.1019E-01
   126.0      0.9760E-02
   127.0      0.9420E-02
   128.0      0.9162E-02
   129.0      0.8977E-02
   130.0      0.8855E-02
   131.0      0.8785E-02
   132.0      0.8758E-02
   133.0      0.8760E-02
   134.0      0.8782E-02
   135.0      0.8810E-02
   136.0      0.8835E-02
   137.0      0.8847E-02
   138.0      0.8836E-02
   139.0      0.8797E-02
   140.0      0.8722E-02
   141.0      0.8608E-02
   142.0      0.8455E-02
   143.0      0.8263E-02
   144.0      0.8034E-02
   145.0      0.7773E-02
   146.0      0.7486E-02
   147.0      0.7181E-02
   148.0      0.6865E-02
   149.0      0.6550E-02
   150.0      0.6243E-02
   151.0      0.5953E-02
   152.0      0.5690E-02
   153.0      0.5460E-02
   154.0      0.5270E-02
   155.0      0.5125E-02
   156.0      0.5026E-02
   157.0      0.4975E-02
   158.0      0.4971E-02
   159.0      0.5011E-02
   160.0      0.5093E-02
   161.0      0.5209E-02
   162.0      0.5355E-02
   163.0      0.5523E-02
   164.0      0.5707E-02
   165.0      0.5899E-02
   166.0      0.6093E-02
   167.0      0.6282E-02
   168.0      0.6463E-02
   169.0      0.6630E-02
   170.0      0.6781E-02
   171.0      0.6914E-02
   172.0      0.7029E-02
   173.0      0.7124E-02
   174.0      0.7202E-02
   175.0      0.7264E-02
   176.0      0.7311E-02
   177.0      0.7345E-02
   178.0      0.7368E-02
   179.0      0.7381E-02
   180.0      0.7385E-02
 END
@legend string   3 "Partition=  2 Excit=  3 near/far= 1"
#legend string   0 "Lab energy =   35.0000"
@s3 linestyle   4
#  Theta       sigma       iT11        T20         T21         T22         Kyy for projectile
   0.000       5.735    
   1.000       5.718    
   2.000       5.666    
   3.000       5.583    
   4.000       5.475    
   5.000       5.350    
   6.000       5.215    
   7.000       5.077    
   8.000       4.942    
   9.000       4.815    
   10.00       4.699    
   11.00       4.593    
   12.00       4.497    
   13.00       4.407    
   14.00       4.317    
   15.00       4.223    
   16.00       4.119    
   17.00       3.999    
   18.00       3.860    
   19.00       3.699    
   20.00       3.515    
   21.00       3.311    
   22.00       3.087    
   23.00       2.849    
   24.00       2.601    
   25.00       2.349    
   26.00       2.100    
   27.00       1.861    
   28.00       1.637    
   29.00       1.433    
   30.00       1.254    
   31.00       1.102    
   32.00      0.9795    
   33.00      0.8872    
   34.00      0.8242    
   35.00      0.7889    
   36.00      0.7786    
   37.00      0.7901    
   38.00      0.8195    
   39.00      0.8628    
   40.00      0.9157    
   41.00      0.9742    
   42.00       1.034    
   43.00       1.093    
   44.00       1.147    
   45.00       1.193    
   46.00       1.231    
   47.00       1.259    
   48.00       1.276    
   49.00       1.282    
   50.00       1.278    
   51.00       1.264    
   52.00       1.241    
   53.00       1.211    
   54.00       1.175    
   55.00       1.135    
   56.00       1.091    
   57.00       1.046    
   58.00       1.000    
   59.00      0.9559    
   60.00      0.9132    
   61.00      0.8733    
   62.00      0.8366    
   63.00      0.8036    
   64.00      0.7744    
   65.00      0.7491    
   66.00      0.7276    
   67.00      0.7096    
   68.00      0.6947    
   69.00      0.6825    
   70.00      0.6725    
   71.00      0.6642    
   72.00      0.6572    
   73.00      0.6508    
   74.00      0.6446    
   75.00      0.6383    
   76.00      0.6315    
   77.00      0.6238    
   78.00      0.6151    
   79.00      0.6052    
   80.00      0.5939    
   81.00      0.5814    
   82.00      0.5676    
   83.00      0.5525    
   84.00      0.5364    
   85.00      0.5193    
   86.00      0.5015    
   87.00      0.4830    
   88.00      0.4642    
   89.00      0.4452    
   90.00      0.4262    
   91.00      0.4074    
   92.00      0.3889    
   93.00      0.3709    
   94.00      0.3536    
   95.00      0.3369    
   96.00      0.3211    
   97.00      0.3061    
   98.00      0.2921    
   99.00      0.2789    
   100.0      0.2667    
   101.0      0.2553    
   102.0      0.2448    
   103.0      0.2352    
   104.0      0.2263    
   105.0      0.2181    
   106.0      0.2106    
   107.0      0.2037    
   108.0      0.1974    
   109.0      0.1916    
   110.0      0.1862    
   111.0      0.1811    
   112.0      0.1764    
   113.0      0.1720    
   114.0      0.1678    
   115.0      0.1637    
   116.0      0.1599    
   117.0      0.1561    
   118.0      0.1524    
   119.0      0.1487    
   120.0      0.1451    
   121.0      0.1415    
   122.0      0.1378    
   123.0      0.1341    
   124.0      0.1303    
   125.0      0.1265    
   126.0      0.1226    
   127.0      0.1186    
   128.0      0.1146    
   129.0      0.1106    
   130.0      0.1065    
   131.0      0.1025    
   132.0      0.9844E-01
   133.0      0.9448E-01
   134.0      0.9060E-01
   135.0      0.8685E-01
   136.0      0.8325E-01
   137.0      0.7985E-01
   138.0      0.7667E-01
   139.0      0.7375E-01
   140.0      0.7110E-01
   141.0      0.6875E-01
   142.0      0.6672E-01
   143.0      0.6502E-01
   144.0      0.6365E-01
   145.0      0.6262E-01
   146.0      0.6193E-01
   147.0      0.6156E-01
   148.0      0.6150E-01
   149.0      0.6173E-01
   150.0      0.6224E-01
   151.0      0.6301E-01
   152.0      0.6399E-01
   153.0      0.6518E-01
   154.0      0.6655E-01
   155.0      0.6807E-01
   156.0      0.6972E-01
   157.0      0.7147E-01
   158.0      0.7331E-01
   159.0      0.7521E-01
   160.0      0.7716E-01
   161.0      0.7915E-01
   162.0      0.8115E-01
   163.0      0.8316E-01
   164.0      0.8516E-01
   165.0      0.8713E-01
   166.0      0.8907E-01
   167.0      0.9097E-01
   168.0      0.9281E-01
   169.0      0.9457E-01
   170.0      0.9625E-01
   171.0      0.9783E-01
   172.0      0.9929E-01
   173.0      0.1006    
   174.0      0.1018    
   175.0      0.1028    
   176.0      0.1037    
   177.0      0.1044    
   178.0      0.1049    
   179.0      0.1052    
   180.0      0.1053    
 END
