# 178 angles,  1 tensor ranks for 0=projectile
@subtitle   "20O + d Ex 6.5 3-;"                                                            
@legend ON
@legend x1 0.2
@legend y1 0.8
@g0 type LOGY
@yaxis ticklabel format power
@xaxis label "Scattering angle (degrees)"
@yaxis label "Cross section (mb/sr)"
@legend string   0 "Partition=  1 Excit=  1 near/far= 1"
#legend string   0 "Lab energy =   70.0000"
@s0 linestyle   1
#  Theta       sigma       iT11        T20         T21         T22         Kyy for projectile
   3.000      0.2716E+05
   4.000      0.1161E+05
   5.000       8316.    
   6.000       6842.    
   7.000       5623.    
   8.000       4452.    
   9.000       3359.    
   10.00       2399.    
   11.00       1609.    
   12.00       1002.    
   13.00       568.5    
   14.00       287.0    
   15.00       127.4    
   16.00       57.64    
   17.00       47.33    
   18.00       70.59    
   19.00       107.3    
   20.00       143.7    
   21.00       171.3    
   22.00       186.5    
   23.00       188.9    
   24.00       180.6    
   25.00       164.4    
   26.00       143.7    
   27.00       121.5    
   28.00       100.1    
   29.00       81.23    
   30.00       65.67    
   31.00       53.67    
   32.00       44.99    
   33.00       39.08    
   34.00       35.26    
   35.00       32.86    
   36.00       31.25    
   37.00       29.95    
   38.00       28.63    
   39.00       27.09    
   40.00       25.26    
   41.00       23.14    
   42.00       20.82    
   43.00       18.41    
   44.00       16.00    
   45.00       13.72    
   46.00       11.62    
   47.00       9.769    
   48.00       8.185    
   49.00       6.869    
   50.00       5.804    
   51.00       4.960    
   52.00       4.300    
   53.00       3.785    
   54.00       3.379    
   55.00       3.049    
   56.00       2.771    
   57.00       2.525    
   58.00       2.298    
   59.00       2.083    
   60.00       1.876    
   61.00       1.677    
   62.00       1.488    
   63.00       1.310    
   64.00       1.145    
   65.00      0.9960    
   66.00      0.8636    
   67.00      0.7482    
   68.00      0.6493    
   69.00      0.5657    
   70.00      0.4958    
   71.00      0.4376    
   72.00      0.3893    
   73.00      0.3489    
   74.00      0.3145    
   75.00      0.2848    
   76.00      0.2585    
   77.00      0.2346    
   78.00      0.2127    
   79.00      0.1922    
   80.00      0.1729    
   81.00      0.1548    
   82.00      0.1379    
   83.00      0.1223    
   84.00      0.1080    
   85.00      0.9497E-01
   86.00      0.8336E-01
   87.00      0.7311E-01
   88.00      0.6417E-01
   89.00      0.5646E-01
   90.00      0.4986E-01
   91.00      0.4424E-01
   92.00      0.3947E-01
   93.00      0.3542E-01
   94.00      0.3196E-01
   95.00      0.2896E-01
   96.00      0.2634E-01
   97.00      0.2399E-01
   98.00      0.2187E-01
   99.00      0.1993E-01
   100.0      0.1812E-01
   101.0      0.1642E-01
   102.0      0.1483E-01
   103.0      0.1333E-01
   104.0      0.1194E-01
   105.0      0.1064E-01
   106.0      0.9446E-02
   107.0      0.8356E-02
   108.0      0.7371E-02
   109.0      0.6490E-02
   110.0      0.5710E-02
   111.0      0.5026E-02
   112.0      0.4431E-02
   113.0      0.3917E-02
   114.0      0.3477E-02
   115.0      0.3099E-02
   116.0      0.2776E-02
   117.0      0.2499E-02
   118.0      0.2260E-02
   119.0      0.2052E-02
   120.0      0.1868E-02
   121.0      0.1704E-02
   122.0      0.1555E-02
   123.0      0.1419E-02
   124.0      0.1292E-02
   125.0      0.1175E-02
   126.0      0.1065E-02
   127.0      0.9613E-03
   128.0      0.8648E-03
   129.0      0.7749E-03
   130.0      0.6917E-03
   131.0      0.6151E-03
   132.0      0.5453E-03
   133.0      0.4823E-03
   134.0      0.4257E-03
   135.0      0.3756E-03
   136.0      0.3314E-03
   137.0      0.2929E-03
   138.0      0.2597E-03
   139.0      0.2312E-03
   140.0      0.2069E-03
   141.0      0.1863E-03
   142.0      0.1691E-03
   143.0      0.1546E-03
   144.0      0.1425E-03
   145.0      0.1325E-03
   146.0      0.1240E-03
   147.0      0.1170E-03
   148.0      0.1109E-03
   149.0      0.1057E-03
   150.0      0.1010E-03
   151.0      0.9675E-04
   152.0      0.9270E-04
   153.0      0.8873E-04
   154.0      0.8473E-04
   155.0      0.8062E-04
   156.0      0.7636E-04
   157.0      0.7193E-04
   158.0      0.6734E-04
   159.0      0.6265E-04
   160.0      0.5792E-04
   161.0      0.5325E-04
   162.0      0.4875E-04
   163.0      0.4454E-04
   164.0      0.4073E-04
   165.0      0.3743E-04
   166.0      0.3473E-04
   167.0      0.3270E-04
   168.0      0.3136E-04
   169.0      0.3073E-04
   170.0      0.3076E-04
   171.0      0.3138E-04
   172.0      0.3250E-04
   173.0      0.3399E-04
   174.0      0.3570E-04
   175.0      0.3748E-04
   176.0      0.3919E-04
   177.0      0.4068E-04
   178.0      0.4184E-04
   179.0      0.4258E-04
   180.0      0.4283E-04
 END
@legend string   1 "Partition=  1 Excit=  2 near/far= 1"
#legend string   0 "Lab energy =   70.0000"
@s1 linestyle   2
#  Theta       sigma       iT11        T20         T21         T22         Kyy for projectile
   3.000       2.866    
   4.000       3.413    
   5.000       3.980    
   6.000       4.511    
   7.000       4.974    
   8.000       5.365    
   9.000       5.706    
   10.00       6.032    
   11.00       6.379    
   12.00       6.769    
   13.00       7.204    
   14.00       7.662    
   15.00       8.099    
   16.00       8.460    
   17.00       8.689    
   18.00       8.739    
   19.00       8.583    
   20.00       8.216    
   21.00       7.661    
   22.00       6.959    
   23.00       6.168    
   24.00       5.349    
   25.00       4.563    
   26.00       3.862    
   27.00       3.281    
   28.00       2.840    
   29.00       2.542    
   30.00       2.375    
   31.00       2.313    
   32.00       2.328    
   33.00       2.387    
   34.00       2.458    
   35.00       2.516    
   36.00       2.542    
   37.00       2.525    
   38.00       2.461    
   39.00       2.354    
   40.00       2.210    
   41.00       2.041    
   42.00       1.857    
   43.00       1.671    
   44.00       1.492    
   45.00       1.328    
   46.00       1.183    
   47.00       1.060    
   48.00      0.9581    
   49.00      0.8757    
   50.00      0.8092    
   51.00      0.7550    
   52.00      0.7090    
   53.00      0.6678    
   54.00      0.6283    
   55.00      0.5885    
   56.00      0.5473    
   57.00      0.5042    
   58.00      0.4594    
   59.00      0.4138    
   60.00      0.3683    
   61.00      0.3241    
   62.00      0.2822    
   63.00      0.2435    
   64.00      0.2087    
   65.00      0.1782    
   66.00      0.1520    
   67.00      0.1301    
   68.00      0.1122    
   69.00      0.9767E-01
   70.00      0.8608E-01
   71.00      0.7683E-01
   72.00      0.6938E-01
   73.00      0.6325E-01
   74.00      0.5802E-01
   75.00      0.5336E-01
   76.00      0.4905E-01
   77.00      0.4494E-01
   78.00      0.4094E-01
   79.00      0.3704E-01
   80.00      0.3325E-01
   81.00      0.2962E-01
   82.00      0.2618E-01
   83.00      0.2299E-01
   84.00      0.2009E-01
   85.00      0.1749E-01
   86.00      0.1523E-01
   87.00      0.1327E-01
   88.00      0.1162E-01
   89.00      0.1024E-01
   90.00      0.9091E-02
   91.00      0.8142E-02
   92.00      0.7353E-02
   93.00      0.6687E-02
   94.00      0.6114E-02
   95.00      0.5607E-02
   96.00      0.5145E-02
   97.00      0.4716E-02
   98.00      0.4311E-02
   99.00      0.3923E-02
   100.0      0.3552E-02
   101.0      0.3199E-02
   102.0      0.2866E-02
   103.0      0.2557E-02
   104.0      0.2275E-02
   105.0      0.2022E-02
   106.0      0.1798E-02
   107.0      0.1604E-02
   108.0      0.1438E-02
   109.0      0.1300E-02
   110.0      0.1185E-02
   111.0      0.1091E-02
   112.0      0.1014E-02
   113.0      0.9505E-03
   114.0      0.8969E-03
   115.0      0.8502E-03
   116.0      0.8077E-03
   117.0      0.7672E-03
   118.0      0.7271E-03
   119.0      0.6862E-03
   120.0      0.6442E-03
   121.0      0.6009E-03
   122.0      0.5565E-03
   123.0      0.5115E-03
   124.0      0.4664E-03
   125.0      0.4221E-03
   126.0      0.3792E-03
   127.0      0.3383E-03
   128.0      0.3001E-03
   129.0      0.2649E-03
   130.0      0.2331E-03
   131.0      0.2049E-03
   132.0      0.1804E-03
   133.0      0.1596E-03
   134.0      0.1422E-03
   135.0      0.1280E-03
   136.0      0.1166E-03
   137.0      0.1077E-03
   138.0      0.1008E-03
   139.0      0.9545E-04
   140.0      0.9136E-04
   141.0      0.8816E-04
   142.0      0.8561E-04
   143.0      0.8347E-04
   144.0      0.8154E-04
   145.0      0.7958E-04
   146.0      0.7742E-04
   147.0      0.7495E-04
   148.0      0.7217E-04
   149.0      0.6916E-04
   150.0      0.6598E-04
   151.0      0.6268E-04
   152.0      0.5930E-04
   153.0      0.5587E-04
   154.0      0.5243E-04
   155.0      0.4906E-04
   156.0      0.4581E-04
   157.0      0.4273E-04
   158.0      0.3984E-04
   159.0      0.3718E-04
   160.0      0.3478E-04
   161.0      0.3267E-04
   162.0      0.3083E-04
   163.0      0.2926E-04
   164.0      0.2791E-04
   165.0      0.2677E-04
   166.0      0.2583E-04
   167.0      0.2509E-04
   168.0      0.2455E-04
   169.0      0.2418E-04
   170.0      0.2398E-04
   171.0      0.2391E-04
   172.0      0.2395E-04
   173.0      0.2408E-04
   174.0      0.2427E-04
   175.0      0.2447E-04
   176.0      0.2464E-04
   177.0      0.2476E-04
   178.0      0.2481E-04
   179.0      0.2483E-04
   180.0      0.2484E-04
 END
