# 178 angles,  1 tensor ranks for 0=projectile
@subtitle   "20O + d 3-?;"                                                                  
@legend ON
@legend x1 0.2
@legend y1 0.8
@g0 type LOGY
@yaxis ticklabel format power
@xaxis label "Scattering angle (degrees)"
@yaxis label "Cross section (mb/sr)"
@legend string   0 "Partition=  1 Excit=  1 near/far= 1"
#legend string   0 "Lab energy =   70.0000"
@s0 linestyle   1
#  Theta       sigma       iT11        T20         T21         T22         Kyy for projectile
   3.000      0.2748E+05
   4.000      0.1166E+05
   5.000       8276.    
   6.000       6786.    
   7.000       5580.    
   8.000       4431.    
   9.000       3360.    
   10.00       2418.    
   11.00       1639.    
   12.00       1034.    
   13.00       596.5    
   14.00       306.3    
   15.00       135.2    
   16.00       53.04    
   17.00       31.10    
   18.00       44.72    
   19.00       74.58    
   20.00       107.0    
   21.00       133.5    
   22.00       150.0    
   23.00       155.5    
   24.00       151.1    
   25.00       139.4    
   26.00       123.0    
   27.00       104.6    
   28.00       86.25    
   29.00       69.55    
   30.00       55.38    
   31.00       44.12    
   32.00       35.69    
   33.00       29.76    
   34.00       25.82    
   35.00       23.32    
   36.00       21.76    
   37.00       20.70    
   38.00       19.81    
   39.00       18.87    
   40.00       17.78    
   41.00       16.48    
   42.00       14.99    
   43.00       13.38    
   44.00       11.71    
   45.00       10.06    
   46.00       8.495    
   47.00       7.066    
   48.00       5.808    
   49.00       4.738    
   50.00       3.859    
   51.00       3.160    
   52.00       2.621    
   53.00       2.218    
   54.00       1.924    
   55.00       1.712    
   56.00       1.560    
   57.00       1.445    
   58.00       1.353    
   59.00       1.270    
   60.00       1.190    
   61.00       1.106    
   62.00       1.019    
   63.00      0.9271    
   64.00      0.8330    
   65.00      0.7389    
   66.00      0.6474    
   67.00      0.5610    
   68.00      0.4817    
   69.00      0.4109    
   70.00      0.3495    
   71.00      0.2975    
   72.00      0.2546    
   73.00      0.2201    
   74.00      0.1928    
   75.00      0.1716    
   76.00      0.1550    
   77.00      0.1419    
   78.00      0.1312    
   79.00      0.1221    
   80.00      0.1137    
   81.00      0.1056    
   82.00      0.9753E-01
   83.00      0.8931E-01
   84.00      0.8093E-01
   85.00      0.7250E-01
   86.00      0.6416E-01
   87.00      0.5609E-01
   88.00      0.4845E-01
   89.00      0.4141E-01
   90.00      0.3508E-01
   91.00      0.2952E-01
   92.00      0.2478E-01
   93.00      0.2085E-01
   94.00      0.1766E-01
   95.00      0.1516E-01
   96.00      0.1324E-01
   97.00      0.1181E-01
   98.00      0.1076E-01
   99.00      0.9994E-02
   100.0      0.9416E-02
   101.0      0.8954E-02
   102.0      0.8548E-02
   103.0      0.8152E-02
   104.0      0.7738E-02
   105.0      0.7288E-02
   106.0      0.6798E-02
   107.0      0.6270E-02
   108.0      0.5714E-02
   109.0      0.5142E-02
   110.0      0.4570E-02
   111.0      0.4012E-02
   112.0      0.3481E-02
   113.0      0.2987E-02
   114.0      0.2539E-02
   115.0      0.2142E-02
   116.0      0.1798E-02
   117.0      0.1506E-02
   118.0      0.1264E-02
   119.0      0.1069E-02
   120.0      0.9143E-03
   121.0      0.7949E-03
   122.0      0.7046E-03
   123.0      0.6376E-03
   124.0      0.5882E-03
   125.0      0.5517E-03
   126.0      0.5239E-03
   127.0      0.5012E-03
   128.0      0.4811E-03
   129.0      0.4615E-03
   130.0      0.4412E-03
   131.0      0.4194E-03
   132.0      0.3957E-03
   133.0      0.3702E-03
   134.0      0.3431E-03
   135.0      0.3149E-03
   136.0      0.2863E-03
   137.0      0.2577E-03
   138.0      0.2298E-03
   139.0      0.2032E-03
   140.0      0.1784E-03
   141.0      0.1557E-03
   142.0      0.1356E-03
   143.0      0.1181E-03
   144.0      0.1035E-03
   145.0      0.9178E-04
   146.0      0.8286E-04
   147.0      0.7661E-04
   148.0      0.7286E-04
   149.0      0.7137E-04
   150.0      0.7184E-04
   151.0      0.7398E-04
   152.0      0.7746E-04
   153.0      0.8194E-04
   154.0      0.8709E-04
   155.0      0.9258E-04
   156.0      0.9810E-04
   157.0      0.1033E-03
   158.0      0.1080E-03
   159.0      0.1119E-03
   160.0      0.1148E-03
   161.0      0.1165E-03
   162.0      0.1169E-03
   163.0      0.1159E-03
   164.0      0.1134E-03
   165.0      0.1095E-03
   166.0      0.1042E-03
   167.0      0.9773E-04
   168.0      0.9015E-04
   169.0      0.8170E-04
   170.0      0.7263E-04
   171.0      0.6320E-04
   172.0      0.5371E-04
   173.0      0.4445E-04
   174.0      0.3572E-04
   175.0      0.2779E-04
   176.0      0.2091E-04
   177.0      0.1532E-04
   178.0      0.1120E-04
   179.0      0.8665E-05
   180.0      0.7812E-05
 END
@legend string   1 "Partition=  1 Excit=  2 near/far= 1"
#legend string   0 "Lab energy =   70.0000"
@s1 linestyle   2
#  Theta       sigma       iT11        T20         T21         T22         Kyy for projectile
   3.000       12.45    
   4.000       15.63    
   5.000       18.89    
   6.000       21.91    
   7.000       24.53    
   8.000       26.72    
   9.000       28.63    
   10.00       30.46    
   11.00       32.42    
   12.00       34.64    
   13.00       37.12    
   14.00       39.74    
   15.00       42.25    
   16.00       44.32    
   17.00       45.63    
   18.00       45.92    
   19.00       45.02    
   20.00       42.93    
   21.00       39.77    
   22.00       35.79    
   23.00       31.31    
   24.00       26.71    
   25.00       22.31    
   26.00       18.43    
   27.00       15.25    
   28.00       12.89    
   29.00       11.35    
   30.00       10.55    
   31.00       10.36    
   32.00       10.59    
   33.00       11.05    
   34.00       11.58    
   35.00       12.01    
   36.00       12.25    
   37.00       12.24    
   38.00       11.95    
   39.00       11.41    
   40.00       10.66    
   41.00       9.764    
   42.00       8.795    
   43.00       7.816    
   44.00       6.884    
   45.00       6.040    
   46.00       5.312    
   47.00       4.710    
   48.00       4.230    
   49.00       3.860    
   50.00       3.579    
   51.00       3.364    
   52.00       3.191    
   53.00       3.038    
   54.00       2.889    
   55.00       2.732    
   56.00       2.560    
   57.00       2.371    
   58.00       2.166    
   59.00       1.951    
   60.00       1.732    
   61.00       1.516    
   62.00       1.309    
   63.00       1.118    
   64.00      0.9460    
   65.00      0.7961    
   66.00      0.6692    
   67.00      0.5647    
   68.00      0.4809    
   69.00      0.4154    
   70.00      0.3649    
   71.00      0.3265    
   72.00      0.2969    
   73.00      0.2735    
   74.00      0.2539    
   75.00      0.2364    
   76.00      0.2197    
   77.00      0.2031    
   78.00      0.1863    
   79.00      0.1691    
   80.00      0.1519    
   81.00      0.1349    
   82.00      0.1186    
   83.00      0.1033    
   84.00      0.8927E-01
   85.00      0.7678E-01
   86.00      0.6591E-01
   87.00      0.5669E-01
   88.00      0.4904E-01
   89.00      0.4282E-01
   90.00      0.3783E-01
   91.00      0.3388E-01
   92.00      0.3073E-01
   93.00      0.2818E-01
   94.00      0.2605E-01
   95.00      0.2419E-01
   96.00      0.2249E-01
   97.00      0.2085E-01
   98.00      0.1924E-01
   99.00      0.1763E-01
   100.0      0.1602E-01
   101.0      0.1444E-01
   102.0      0.1289E-01
   103.0      0.1142E-01
   104.0      0.1005E-01
   105.0      0.8794E-02
   106.0      0.7678E-02
   107.0      0.6708E-02
   108.0      0.5885E-02
   109.0      0.5205E-02
   110.0      0.4656E-02
   111.0      0.4221E-02
   112.0      0.3885E-02
   113.0      0.3625E-02
   114.0      0.3425E-02
   115.0      0.3265E-02
   116.0      0.3130E-02
   117.0      0.3007E-02
   118.0      0.2885E-02
   119.0      0.2758E-02
   120.0      0.2621E-02
   121.0      0.2473E-02
   122.0      0.2313E-02
   123.0      0.2144E-02
   124.0      0.1969E-02
   125.0      0.1791E-02
   126.0      0.1613E-02
   127.0      0.1441E-02
   128.0      0.1277E-02
   129.0      0.1124E-02
   130.0      0.9843E-03
   131.0      0.8594E-03
   132.0      0.7500E-03
   133.0      0.6561E-03
   134.0      0.5773E-03
   135.0      0.5126E-03
   136.0      0.4606E-03
   137.0      0.4197E-03
   138.0      0.3883E-03
   139.0      0.3645E-03
   140.0      0.3467E-03
   141.0      0.3333E-03
   142.0      0.3228E-03
   143.0      0.3141E-03
   144.0      0.3061E-03
   145.0      0.2981E-03
   146.0      0.2896E-03
   147.0      0.2803E-03
   148.0      0.2698E-03
   149.0      0.2584E-03
   150.0      0.2459E-03
   151.0      0.2328E-03
   152.0      0.2192E-03
   153.0      0.2053E-03
   154.0      0.1915E-03
   155.0      0.1781E-03
   156.0      0.1653E-03
   157.0      0.1533E-03
   158.0      0.1423E-03
   159.0      0.1323E-03
   160.0      0.1234E-03
   161.0      0.1157E-03
   162.0      0.1092E-03
   163.0      0.1037E-03
   164.0      0.9932E-04
   165.0      0.9585E-04
   166.0      0.9324E-04
   167.0      0.9138E-04
   168.0      0.9017E-04
   169.0      0.8951E-04
   170.0      0.8930E-04
   171.0      0.8945E-04
   172.0      0.8986E-04
   173.0      0.9045E-04
   174.0      0.9114E-04
   175.0      0.9185E-04
   176.0      0.9253E-04
   177.0      0.9312E-04
   178.0      0.9357E-04
   179.0      0.9386E-04
   180.0      0.9395E-04
 END
